magnetometer-calibrated.txt

All values are in micro-Tesla (uT).
http://developer.android.com/guide/topics/sensors/sensors_overview.html

elapsed-time-system elapsed-time-sensor x y z
0.388 0.375 27.74353 -51.08185 -43.15033
0.412 0.395 27.830505 -51.504517 -43.400574
0.429 0.415 27.56958 -50.72937 -43.147278
0.450 0.436 26.896667 -50.9552 -42.658997
0.469 0.456 26.493835 -51.83716 -42.42401
0.499 0.476 26.675415 -50.75226 -42.42401
0.512 0.496 26.828003 -50.924683 -42.599487
0.528 0.516 26.828003 -51.83716 -42.749023
0.548 0.536 26.922607 -51.553345 -42.282104
0.568 0.556 27.183533 -51.148987 -42.49115
0.587 0.577 27.328491 -51.005554 -42.912292
0.607 0.597 27.827454 -51.106262 -42.619324
0.628 0.617 27.964783 -51.568604 -42.616272
0.647 0.637 27.830505 -51.83716 -42.749023
0.667 0.657 27.307129 -51.109314 -42.034912
0.688 0.677 27.722168 -51.605225 -41.91284
0.707 0.697 28.164673 -52.1698 -42.097473
0.727 0.718 28.489685 -52.713013 -42.20276
0.749 0.738 29.09851 -52.139282 -41.415405
0.767 0.758 29.333496 -51.670837 -40.95764
0.787 0.778 28.198242 -52.124023 -40.734863
0.807 0.798 27.775574 -52.89917 -41.18042
0.827 0.818 27.830505 -53.16925 -41.445923
0.848 0.838 28.300476 -52.93579 -39.837646
0.868 0.859 28.263855 -52.83661 -39.848328
0.891 0.879 28.164673 -52.83661 -40.142822
0.907 0.899 27.430725 -51.8631 -39.427185
0.927 0.919 29.100037 -51.504517 -39.874268
0.948 0.939 29.833984 -51.504517 -40.142822
0.966 0.959 28.692627 -53.9032 -39.27765
0.989 0.979 26.8219 -53.164673 -39.00299
1.007 1.000 26.327515 -52.670288 -39.00299
1.027 1.020 27.767944 -53.58429 -39.385986
1.048 1.040 26.0849 -53.57666 -38.72986
1.067 1.060 25.492859 -53.501892 -38.513184
1.087 1.080 26.708984 -53.637695 -38.116455
1.107 1.100 27.262878 -53.668213 -38.54828
1.127 1.120 27.328491 -53.668213 -38.676453
1.148 1.141 27.04773 -54.78363 -38.40332
1.168 1.161 28.659058 -54.170227 -38.35144
1.187 1.181 28.999329 -54.000854 -38.35144
1.206 1.201 27.98767 -54.145813 -38.490295
1.226 1.221 28.546143 -54.310608 -38.093567
1.247 1.241 28.665161 -54.333496 -38.024902
1.266 1.261 28.813171 -52.999878 -37.878418
1.287 1.282 28.240967 -54.896545 -37.573242
1.307 1.302 28.164673 -55.1651 -37.53662
1.326 1.322 27.397156 -53.486633 -38.58185
1.347 1.342 28.848267 -53.033447 -39.268494
1.366 1.362 28.999329 -53.00293 -39.328003
1.387 1.382 29.154968 -51.58844 -38.250732
1.406 1.402 30.10254 -52.127075 -39.405823
1.426 1.423 30.168152 -52.1698 -39.491272
1.447 1.443 29.518127 -51.200867 -38.858032
1.466 1.463 30.140686 -51.171875 -38.83972
1.487 1.483 30.168152 -51.171875 -38.83972
1.506 1.503 29.833984 -51.504517 -38.83972
1.526 1.523 29.997253 -50.35553 -38.67798
1.566 1.543 29.975891 -50.379944 -38.67798
1.587 1.564 28.497314 -52.81372 -38.815308
1.606 1.584 28.497314 -51.83716 -37.861633
1.626 1.604 28.518677 -51.87378 -37.84027
1.649 1.624 29.064941 -52.65503 -37.420654
1.669 1.644 30.334473 -52.337646 -38.35144
1.686 1.664 30.28717 -52.29187 -38.35144
1.706 1.684 29.641724 -51.849365 -38.22632
1.725 1.705 29.333496 -54.000854 -36.7218
1.747 1.725 29.44336 -53.95508 -36.6745
1.766 1.745 30.262756 -53.434753 -36.23352
1.786 1.765 28.164673 -52.83661 -36.23352
1.805 1.785 28.405762 -52.998352 -36.271667
1.826 1.805 29.86908 -54.125977 -36.392212
1.846 1.825 27.830505 -53.834534 -35.255432
1.865 1.846 27.952576 -53.95813 -35.47058
1.886 1.866 28.587341 -54.333496 -36.44409
1.906 1.886 28.164673 -52.503967 -34.93042
1.925 1.906 28.076172 -52.4765 -35.2417
1.946 1.926 27.632141 -52.48871 -36.57379
1.967 1.946 27.496338 -53.16925 -35.906982
1.986 1.966 27.630615 -53.103638 -35.70862
2.005 1.987 28.266907 -53.009033 -35.098267
2.024 2.007 28.665161 -53.668213 -35.74524
2.044 2.027 28.894043 -53.593445 -35.221863
2.066 2.047 29.510498 -53.804016 -33.691406
2.084 2.067 28.999329 -55.332947 -34.44214
2.105 2.087 28.955078 -54.948425 -34.31549
2.125 2.107 28.439331 -54.13971 -33.909607
2.150 2.128 27.328491 -54.99878 -33.79059
2.164 2.148 27.70691 -54.9057 -33.69751
2.184 2.168 28.520203 -54.618835 -33.416748
2.205 2.188 28.164673 -54.499817 -33.30078
2.224 2.208 28.111267 -54.551697 -33.148193
2.247 2.228 28.152466 -55.13611 -32.351685
2.264 2.248 28.497314 -56.16455 -31.34613
2.284 2.269 28.327942 -55.66101 -31.619263
2.305 2.289 27.767944 -54.666138 -32.603455
2.325 2.309 27.328491 -54.666138 -33.46405
2.349 2.329 27.874756 -54.486084 -33.285522
2.367 2.349 28.707886 -54.167175 -32.97577
2.384 2.369 28.497314 -54.167175 -32.97577
2.405 2.389 28.497314 -53.778076 -32.33795
2.425 2.410 28.75824 -54.083252 -31.472778
2.444 2.430 29.16565 -55.499268 -31.672668
2.464 2.450 28.956604 -55.430603 -31.739807
2.484 2.470 28.456116 -54.9881 -31.225586
2.504 2.490 28.164673 -54.499817 -30.369568
2.524 2.510 28.385925 -54.870605 -30.296326
2.547 2.530 28.367615 -55.776978 -30.49469
2.564 2.550 27.996826 -56.33087 -30.85785
2.585 2.571 28.309631 -56.019592 -30.39856
2.605 2.591 27.488708 -55.900574 -29.803467
2.623 2.611 26.159668 -56.16455 -29.718018
2.645 2.631 25.49591 -56.33087 -30.203247
2.664 2.651 25.65155 -56.002808 -30.20935
2.683 2.671 26.493835 -55.499268 -29.718018
2.704 2.691 25.619507 -55.499268 -30.229187
2.724 2.712 25.782776 -55.760193 -30.099487
2.745 2.732 26.661682 -55.99823 -29.554749
2.763 2.752 27.027893 -55.26581 -30.091858
2.784 2.772 27.14386 -55.215454 -29.995728
2.803 2.792 26.994324 -55.66559 -29.554749
2.823 2.812 26.416016 -55.282593 -30.117798
2.845 2.832 26.280212 -55.28717 -29.876709
2.864 2.853 26.493835 -55.499268 -29.39148
2.884 2.873 26.290894 -55.09796 -29.194641
2.906 2.893 26.660156 -55.734253 -29.9469
2.923 2.913 26.994324 -56.33087 -30.532837
2.944 2.933 27.31018 -55.596924 -29.197693
2.965 2.953 26.76239 -56.106567 -28.720093
2.983 2.973 26.327515 -56.663513 -28.903198
3.004 2.994 25.778198 -56.555176 -29.437256
3.033 3.014 25.709534 -56.497192 -28.652954
3.049 3.034 25.8255 -56.497192 -28.088379
3.064 3.054 25.71106 -56.611633 -28.868103
3.083 3.074 24.63684 -55.418396 -29.3396
3.103 3.094 24.156189 -54.83246 -29.39148
3.124 3.114 25.579834 -56.01654 -29.159546
3.144 3.135 25.334167 -55.911255 -28.9505
3.165 3.155 24.990845 -55.66559 -28.903198
3.183 3.175 23.883057 -56.033325 -29.742432
3.204 3.195 24.586487 -56.53076 -29.684448
3.231 3.215 24.990845 -56.663513 -29.554749
3.245 3.235 24.6109 -56.28662 -29.429626
3.265 3.255 24.989319 -55.915833 -29.147339
3.283 3.276 25.158691 -55.83191 -29.066467
3.303 3.296 25.286865 -56.480408 -28.938293
3.324 3.316 24.54834 -57.435608 -29.910278
3.346 3.336 24.32251 -57.661438 -30.206299
3.365 3.356 23.918152 -57.26013 -28.23639
3.384 3.376 24.35608 -56.63147 -28.544617
3.410 3.396 24.490356 -56.497192 -28.73993
3.430 3.417 25.602722 -55.667114 -28.73993
3.444 3.437 24.864197 -57.00531 -30.749512
3.466 3.457 24.656677 -57.328796 -31.184387
3.485 3.477 24.224854 -56.040955 -29.078674
3.506 3.497 24.867249 -55.407715 -29.156494
3.531 3.517 24.990845 -55.332947 -29.229736
3.547 3.537 24.990845 -55.628967 -29.229736
3.563 3.558 25.13733 -56.692505 -28.511047
3.582 3.578 25.158691 -56.829834 -28.414917
3.602 3.598 24.546814 -55.918884 -28.115845
3.622 3.618 25.094604 -54.927063 -29.563904
3.642 3.638 25.158691 -54.83246 -29.718018
3.663 3.658 25.471497 -54.83246 -29.40979
3.683 3.678 25.956726 -56.22406 -29.240417
3.702 3.699 25.993347 -56.33087 -29.229736
3.723 3.719 26.315308 -55.04303 -30.490112
3.742 3.739 26.327515 -54.681396 -28.659058
3.762 3.759 26.327515 -54.666138 -28.578186
3.782 3.779 25.828552 -53.840637 -30.033875
3.814 3.799 25.169373 -54.162598 -30.682373
3.843 3.819 25.16632 -54.16565 -30.691528
3.865 3.840 25.982666 -54.019165 -30.535889
3.888 3.860 25.492859 -54.83246 -30.69458
3.906 3.880 25.6073 -54.782104 -30.656433
3.925 3.900 28.349304 -53.479004 -29.754639
3.947 3.920 25.325012 -53.00293 -30.532837
3.963 3.940 25.378418 -53.015137 -30.499268
3.986 3.960 26.097107 -53.059387 -30.030823
4.003 3.981 25.325012 -51.670837 -29.881287
4.024 4.001 25.46997 -51.78833 -29.937744
4.045 4.021 27.011108 -53.019714 -30.482483
4.063 4.041 27.16217 -53.16925 -30.04303
4.084 4.061 27.201843 -53.009033 -30.12085
4.104 4.081 27.410889 -51.71051 -30.943298
4.127 4.101 26.828003 -50.839233 -32.64923
4.143 4.122 26.92566 -50.938416 -32.455444
4.169 4.142 27.624512 -51.376343 -31.420898
4.184 4.162 28.330994 -50.672913 -31.835938
4.204 4.182 28.330994 -50.79193 -31.950378
4.226 4.202 28.361511 -51.68457 -32.209778
4.243 4.222 28.497314 -53.16925 -31.021118
4.264 4.242 28.564453 -52.763367 -31.219482
4.286 4.263 28.587341 -51.20697 -32.09839
4.303 4.283 27.662659 -51.338196 -32.487488
4.327 4.303 27.815247 -51.2619 -32.637024
4.341 4.323 28.408813 -51.0849 -32.90863
4.361 4.343 28.665161 -51.338196 -32.16095
4.382 4.363 28.578186 -51.252747 -32.077026
4.401 4.383 28.155518 -50.65918 -32.09076
4.421 4.404 27.662659 -49.674988 -32.8125
4.441 4.424 28.042603 -50.242615 -32.533264
4.463 4.444 29.142761 -51.815796 -32.069397
4.481 4.464 29.499817 -52.1698 -32.64923
4.500 4.484 29.135132 -51.393127 -32.902527
4.521 4.504 29.066467 -50.408936 -33.05359
4.541 4.524 30.66864 -52.00348 -32.16095
4.563 4.545 30.949402 -51.835632 -32.21588
4.586 4.565 31.103516 -50.994873 -32.60193
4.607 4.585 30.334473 -50.00763 -33.139038
4.623 4.605 30.517578 -50.312805 -33.43506
4.646 4.625 30.773926 -50.901794 -33.532715
4.669 4.645 30.66864 -51.005554 -32.8125
4.691 4.665 30.603027 -50.549316 -32.876587
4.703 4.686 30.50232 -49.316406 -32.97577
4.730 4.706 30.50232 -48.509216 -32.97577
4.742 4.726 30.07965 -49.490356 -33.111572
4.768 4.746 29.356384 -50.273132 -33.576965
4.794 4.766 29.16565 -49.508667 -33.95233
4.804 4.786 29.6875 -50.030518 -33.296204
4.823 4.806 29.896545 -50.672913 -33.480835
4.847 4.826 29.333496 -50.672913 -34.76715
4.863 4.847 30.259705 -50.520325 -34.916687
4.886 4.867 30.795288 -50.41809 -34.262085
4.911 4.887 30.168152 -50.50659 -33.30078
4.924 4.907 30.56488 -50.585938 -34.15222
4.943 4.927 31.321716 -50.35553 -35.09369
4.965 4.947 31.671143 -50.00763 -35.09369
4.983 4.967 32.01599 -49.83673 -35.429382
5.012 4.988 32.339478 -49.0036 -35.74524
5.028 5.008 32.339478 -48.342896 -35.74524
5.040 5.028 31.892395 -48.609924 -35.83069
5.059 5.048 32.69348 -48.20404 -36.35254
5.080 5.068 33.67462 -47.677612 -36.7218
5.100 5.088 33.29773 -47.865295 -36.904907
5.120 5.108 34.22699 -47.169495 -36.405945
5.139 5.129 35.177612 -46.513367 -35.906982
5.159 5.149 36.288452 -46.414185 -36.00464
5.182 5.169 36.416626 -46.943665 -36.653137
5.200 5.189 36.012268 -47.34497 -37.04834
5.219 5.209 37.039185 -47.34497 -35.845947
5.240 5.229 38.29651 -47.14203 -34.692383
5.261 5.249 38.684082 -47.01233 -34.44214
5.282 5.270 39.222717 -46.473694 -34.75647
5.302 5.290 39.518738 -45.968628 -35.136414
5.325 5.310 39.518738 -45.846558 -35.255432
5.345 5.330 38.95874 -45.513916 -35.36377
5.370 5.350 38.798523 -44.085693 -36.20453
5.382 5.370 38.85193 -43.518066 -36.558533
5.402 5.390 38.38501 -43.75 -37.01172
5.426 5.411 37.719727 -42.46826 -36.984253
5.445 5.431 37.51526 -41.853333 -36.88507
5.463 5.451 37.74872 -42.32025 -38.25531
5.486 5.471 38.798523 -43.229675 -37.680054
5.501 5.491 39.186096 -43.518066 -37.210083
5.524 5.511 39.309692 -41.39099 -37.82196
5.541 5.531 38.352966 -40.44037 -37.294006
5.572 5.552 38.017273 -40.356445 -37.04834
5.582 5.572 37.257385 -39.349365 -38.526917
5.604 5.592 37.530518 -37.22229 -40.26184
5.619 5.612 37.683105 -36.694336 -40.631104
5.639 5.632 36.871338 -36.42578 -40.89508
5.662 5.652 37.40692 -35.39734 -40.95764
5.680 5.672 37.683105 -35.031128 -40.95764
5.699 5.693 38.380432 -35.17151 -41.636658
5.719 5.713 37.825012 -34.231567 -40.556335
5.738 5.733 37.683105 -34.031677 -40.30609
5.758 5.753 38.40332 -32.739258 -41.571045
5.780 5.773 38.087463 -32.678223 -41.63208
5.799 5.793 38.017273 -32.70111 -41.60919
5.818 5.813 39.057922 -31.663513 -42.33551
5.839 5.834 39.627075 -31.095886 -43.429565
5.859 5.854 39.686584 -31.036377 -43.563843
5.879 5.874 39.53247 -31.800842 -43.115234
5.899 5.894 40.126038 -31.869507 -42.481995
5.919 5.914 40.187073 -31.869507 -42.42401
5.940 5.934 38.926697 -31.240845 -43.652344
5.960 5.954 40.567017 -30.116272 -43.878174
5.982 5.975 40.689087 -30.038452 -43.888855
5.999 5.995 41.33606 -30.038452 -43.572998
6.020 6.015 41.996765 -30.679321 -43.24951
6.049 6.035 42.02423 -30.703735 -43.237305
6.063 6.055 39.031982 -28.3844 -44.210815
6.080 6.075 41.326904 -26.731873 -43.571472
6.123 6.095 41.340637 -26.713562 -43.554688
6.142 6.116 40.509033 -26.896667 -43.093872
6.171 6.136 40.020752 -27.708435 -43.888855
6.184 6.156 40.122986 -27.694702 -43.859863
6.205 6.176 42.33246 -27.368164 -43.278503
6.220 6.196 41.85791 -27.209473 -44.052124
6.240 6.216 41.95099 -27.186584 -43.981934
6.265 6.236 43.04657 -26.864624 -43.06183
6.281 6.257 41.355896 -26.71051 -42.912292
6.298 6.277 41.42151 -26.644897 -43.170166
6.318 6.297 42.12799 -26.080322 -45.44983
6.337 6.317 43.026733 -26.377869 -44.866943
6.357 6.337 42.729187 -26.293945 -44.82422
6.378 6.357 40.91034 -25.535583 -44.40918
6.398 6.377 42.3584 -24.380493 -43.563843
6.417 6.398 42.170715 -24.621582 -43.641663
6.439 6.418 41.220093 -25.660706 -44.143677
6.457 6.438 41.355896 -24.713135 -44.540405
6.478 6.458 41.386414 -24.623108 -44.45038
6.497 6.478 41.271973 -24.526978 -44.296265
6.518 6.498 40.187073 -25.878906 -45.355225
6.538 6.518 40.46173 -25.94757 -45.08667
6.558 6.539 41.345215 -26.74408 -44.22455
6.584 6.559 40.689087 -28.707886 -44.866943
6.599 6.579 40.368652 -29.425049 -44.55414
6.629 6.599 39.234924 -32.051086 -43.374634
6.643 6.619 38.85193 -33.200073 -42.749023
6.659 6.639 38.894653 -33.595276 -42.962646
6.685 6.659 39.0625 -35.18982 -42.99469
6.702 6.680 39.186096 -36.528015 -41.445923
6.723 6.700 38.87787 -37.361145 -40.974426
6.739 6.720 37.98065 -40.075684 -39.55078
6.766 6.740 37.849426 -41.52069 -39.164734
6.779 6.760 37.79602 -41.89148 -38.594055
6.802 6.780 37.31079 -43.58368 -37.321472
6.818 6.800 36.514282 -45.513916 -37.210083
6.839 6.821 36.219788 -45.573425 -37.38098
6.861 6.841 35.44464 -46.49353 -36.90338
6.879 6.861 35.01129 -48.010254 -35.4187
6.899 6.881 35.198975 -48.199463 -35.35614
6.920 6.901 35.38513 -47.76001 -35.009766
6.939 6.921 35.177612 -46.513367 -34.60388
6.964 6.941 34.43451 -47.38617 -34.143066
6.977 6.962 33.410645 -47.76764 -34.214783
7.000 6.982 33.5083 -46.513367 -35.255432
7.033 7.002 33.5083 -47.087097 -34.13086
7.037 7.022 34.295654 -47.058105 -32.858276
7.056 7.042 35.343933 -46.01288 -33.139038
7.076 7.062 34.713745 -46.484375 -32.984924
7.096 7.082 33.850098 -46.85669 -32.504272
7.117 7.102 33.67462 -46.679688 -32.16095
7.136 7.123 34.56726 -46.922302 -33.0307
7.156 7.143 34.942627 -46.774292 -33.872986
7.175 7.163 34.342957 -46.347046 -33.79059
7.196 7.183 34.69391 -46.347046 -33.618164
7.216 7.203 34.924316 -45.750427 -33.04596
7.235 7.223 34.843445 -45.181274 -32.64923
7.255 7.243 34.57184 -44.91272 -32.03125
7.274 7.264 34.342957 -43.5791 -32.229614
7.298 7.284 34.342957 -42.684937 -32.8125
7.319 7.304 34.814453 -42.96875 -31.428528
7.337 7.324 33.859253 -41.87317 -30.369568
7.358 7.344 32.839966 -40.855408 -30.369568
7.377 7.364 34.06067 -40.855408 -30.766296
7.400 7.384 34.742737 -39.35852 -30.140686
7.418 7.405 34.677124 -38.35907 -29.554749
7.445 7.425 34.46808 -37.113953 -28.334045
7.458 7.445 34.031677 -36.671448 -26.689148
7.482 7.465 33.84247 -36.860657 -26.133728
7.506 7.485 34.391785 -35.87494 -24.952698
7.520 7.505 34.999084 -36.116028 -24.02649
7.538 7.525 35.177612 -36.528015 -23.854065
7.556 7.546 34.1568 -37.545776 -23.30017
7.576 7.566 33.67462 -38.720703 -23.039246
7.605 7.586 33.67462 -39.024353 -23.039246
7.620 7.606 33.085632 -39.37683 -22.923279
7.637 7.626 32.955933 -39.40735 -22.532654
7.662 7.646 33.006287 -39.356995 -22.387695
7.678 7.666 32.418823 -40.17639 -22.729492
7.700 7.687 32.888794 -40.76233 -23.34137
7.726 7.707 33.174133 -40.855408 -23.527527
7.737 7.727 31.774902 -41.23535 -23.651123
7.762 7.747 31.210327 -43.23883 -25.041199
7.780 7.767 31.169128 -43.850708 -25.482178
7.795 7.787 30.91278 -44.363403 -24.227905
7.815 7.807 31.097412 -43.99414 -23.854065
7.834 7.828 31.169128 -43.850708 -23.854065
7.854 7.848 29.255676 -44.667053 -24.386597
7.874 7.868 27.885437 -44.984436 -24.899292
7.896 7.888 27.662659 -45.014954 -24.993896
7.914 7.908 28.93219 -44.59381 -24.580383
7.935 7.928 27.766418 -45.63141 -24.230957
7.954 7.948 27.496338 -45.846558 -24.179077
7.974 7.969 26.475525 -45.121765 -26.31073
7.995 7.989 26.904297 -43.577576 -25.776672
8.014 8.009 26.994324 -43.351746 -25.645447
8.034 8.029 25.790405 -46.0495 -26.525879
8.057 8.049 24.021912 -44.717407 -26.187134
8.074 8.069 23.822021 -44.51599 -26.133728
8.095 8.089 22.42279 -45.28961 -26.890564
8.118 8.110 23.242188 -44.122314 -26.347351
8.135 8.130 23.321533 -44.01703 -26.296997
8.159 8.150 22.364807 -45.288086 -26.91803
8.175 8.170 22.001648 -45.033264 -26.638794
8.207 8.190 21.984863 -45.014954 -26.623535
8.215 8.210 21.492004 -45.83435 -26.782227
8.235 8.230 22.462463 -44.22455 -26.785278
8.289 8.251 22.483826 -44.184875 -26.785278
8.302 8.271 21.488953 -44.851685 -27.427673
8.302 8.291 21.984863 -45.014954 -26.623535
8.339 8.311 22.003174 -45.03479 -26.585388
8.361 8.331 22.612 -45.68634 -25.38147
8.376 8.351 21.484375 -45.846558 -27.111816
8.395 8.371 21.560669 -45.846558 -26.979065
8.414 8.392 22.775269 -45.846558 -24.998474
8.434 8.412 22.15271 -45.846558 -27.436829
8.454 8.432 22.206116 -45.90149 -27.305603
8.473 8.452 22.677612 -46.592712 -25.791931
8.494 8.472 21.318054 -47.34497 -25.645447
8.513 8.492 21.336365 -47.250366 -25.476074
8.533 8.512 21.644592 -46.513367 -24.533081
8.553 8.533 22.819519 -46.513367 -27.111816
8.574 8.553 22.888184 -46.21277 -27.043152
8.595 8.573 23.220825 -44.448853 -26.38092
8.613 8.593 22.653198 -45.014954 -24.993896
8.635 8.613 22.593689 -44.95697 -25.106812
8.654 8.633 22.31903 -44.54956 -25.645447
8.673 8.653 22.31903 -44.01703 -25.645447
8.693 8.674 22.285461 -43.9209 -25.613403
8.713 8.694 22.624207 -43.788147 -25.54779
8.737 8.714 24.490356 -44.848633 -25.808716
8.753 8.734 24.421692 -44.380188 -25.546265
8.773 8.754 23.736572 -42.481995 -24.467468
8.793 8.774 22.31903 -42.352295 -24.342346
8.812 8.794 22.737122 -42.269897 -24.832153
8.834 8.815 24.150085 -42.100525 -26.138306
8.852 8.835 24.656677 -42.352295 -25.645447
8.872 8.855 24.656677 -42.538452 -25.463867
8.893 8.875 24.51477 -42.78412 -25.314331
8.912 8.895 24.156189 -42.185974 -26.133728
8.931 8.915 24.562073 -42.085266 -25.836182
8.954 8.935 25.032043 -41.497803 -25.405884
8.972 8.956 23.989868 -40.689087 -25.971985
8.993 8.976 24.099731 -40.46936 -25.75531
9.012 8.996 24.433899 -40.022278 -25.863647
9.031 9.016 24.656677 -40.022278 -26.948547
9.052 9.036 24.595642 -39.96277 -27.482605
9.072 9.056 24.308777 -40.037537 -28.118896
9.093 9.076 23.989868 -40.356445 -27.600098
9.112 9.097 24.180603 -40.675354 -27.537537
9.132 9.117 24.490356 -41.31775 -27.056885
9.151 9.137 24.490356 -41.52069 -26.460266
9.172 9.157 24.835205 -40.901184 -27.067566
9.195 9.177 24.749756 -40.167236 -27.365112
9.211 9.197 23.989868 -40.356445 -26.623535
9.231 9.217 24.505615 -39.98871 -27.270508
9.254 9.238 25.526428 -39.450073 -27.43988
9.271 9.258 25.993347 -39.356995 -26.623535
9.292 9.278 25.671387 -38.71765 -26.93634
9.312 9.298 25.48523 -38.668823 -27.430725
9.331 9.318 25.65918 -39.356995 -27.600098
9.352 9.338 25.575256 -39.274597 -27.68097
9.371 9.358 25.07782 -39.274597 -27.035522
9.391 9.378 24.656677 -39.356995 -26.296997
9.411 9.399 24.034119 -39.093018 -26.556396
9.432 9.419 24.702454 -38.685608 -27.293396
9.452 9.439 25.8255 -38.52539 -27.763367
9.472 9.459 25.456238 -38.52539 -28.121948
9.491 9.479 25.816345 -38.432312 -28.50647
9.512 9.499 26.327515 -38.35907 -28.578186
9.531 9.519 26.423645 -38.26294 -27.729797
9.552 9.540 27.360535 -36.94458 -27.017212
9.571 9.560 27.996826 -36.029053 -26.948547
9.591 9.580 29.138184 -36.340332 -27.250671
9.613 9.600 29.62799 -35.713196 -26.837158
9.636 9.620 29.499817 -35.19745 -26.460266
9.650 9.640 29.815674 -35.092163 -26.976013
9.671 9.660 31.263733 -36.080933 -26.452637
9.690 9.681 32.00531 -36.694336 -25.971985
9.712 9.701 32.56378 -35.691833 -25.205994
9.733 9.721 33.058167 -34.54132 -26.541138
9.750 9.741 33.174133 -34.197998 -27.436829
9.771 9.761 32.943726 -33.970642 -26.095581
9.790 9.781 33.5495 -32.92389 -25.482178
9.811 9.801 33.84247 -32.53479 -25.482178
9.831 9.822 35.035706 -32.53479 -25.715637
9.851 9.842 34.205627 -33.363342 -24.302673
9.871 9.862 33.67462 -33.699036 -23.690796
9.892 9.882 33.2016 -33.935547 -25.764465
9.913 9.902 34.457397 -33.792114 -26.387024
9.935 9.922 35.01129 -33.699036 -26.296997
9.951 9.942 34.88159 -33.572388 -25.66986
9.970 9.963 34.97162 -34.170532 -25.357056
9.993 9.983 35.01129 -34.36432 -25.320435
10.012 10.003 35.01129 -33.589172 -25.320435
10.030 10.023 34.61151 -33.499146 -24.671936
10.050 10.043 34.509277 -33.532715 -24.505615
10.070 10.063 34.924316 -33.395386 -24.908447
10.090 10.083 34.60083 -33.502197 -25.92163
10.110 10.104 34.509277 -33.532715 -26.133728
10.129 10.124 34.080505 -33.95996 -26.272583
10.149 10.144 33.866882 -33.60901 -26.158142
10.170 10.164 33.84247 -33.532715 -26.133728
10.189 10.184 33.250427 -35.298157 -26.997375
10.211 10.204 31.568909 -34.222412 -28.10669
10.232 10.224 31.336975 -34.031677 -28.251648
10.249 10.245 33.00171 -32.67517 -27.807617
10.270 10.265 31.97174 -33.13446 -26.296997
10.289 10.285 31.837463 -33.200073 -26.133728
10.309 10.305 33.71582 -32.577515 -26.74408
10.329 10.325 31.517029 -32.69043 -28.448486
10.349 10.345 31.336975 -32.70111 -28.578186
10.369 10.365 32.946777 -32.380676 -28.890991
10.390 10.386 32.685852 -32.36847 -29.214478
10.410 10.406 32.67212 -32.36847 -29.229736
10.429 10.426 32.009888 -34.01947 -28.257751
10.450 10.446 31.182861 -32.562256 -30.00946
10.489 10.466 31.175232 -32.53174 -30.046082
10.512 10.486 31.82373 -32.209778 -30.375671
10.530 10.506 31.169128 -32.53479 -30.69458
10.549 10.527 31.149292 -32.554626 -30.674744
10.570 10.547 30.717468 -32.984924 -30.171204
10.589 10.567 31.837463 -31.869507 -29.39148
10.613 10.587 31.913757 -31.924438 -29.35791
10.629 10.607 32.86133 -32.678223 -29.066467
10.648 10.627 31.002808 -32.36847 -31.184387
10.668 10.647 31.062317 -32.36847 -31.124878
10.689 10.668 31.619263 -32.31964 -30.581665
10.711 10.688 31.169128 -31.869507 -31.021118
10.728 10.708 31.288147 -31.869507 -30.981445
10.749 10.728 32.17163 -31.70166 -30.69458
10.769 10.748 32.17163 -30.537415 -30.69458
10.788 10.768 32.096863 -30.317688 -30.813599
10.809 10.788 31.593323 -29.528809 -31.332397
10.828 10.809 31.169128 -32.20215 -30.369568
10.848 10.829 31.318665 -32.052612 -30.456543
10.868 10.849 31.904602 -31.269836 -30.82428
10.888 10.869 31.503296 -30.870056 -30.69458
10.908 10.889 31.941223 -30.836487 -30.595398
10.928 10.909 33.23059 -30.670166 -30.17273
10.949 10.929 31.503296 -30.537415 -30.04303
10.968 10.950 31.77185 -30.471802 -30.369568
10.988 10.970 32.839966 -29.977417 -31.672668
11.008 10.990 32.839966 -29.206848 -31.672668
11.028 11.010 32.75299 -29.206848 -31.58722
11.050 11.030 32.174683 -29.866028 -31.265259
11.067 11.050 31.169128 -31.869507 -31.021118
11.087 11.070 31.54602 -31.58722 -30.92804
11.110 11.091 32.118225 -30.581665 -30.69458
11.128 11.111 31.169128 -29.872131 -30.69458
11.150 11.131 31.169128 -29.501343 -31.05774
11.167 11.151 31.317139 -29.13208 -31.99768
11.188 11.171 31.837463 -31.202698 -31.99768
11.208 11.191 31.723022 -30.639648 -31.776428
11.227 11.211 31.27594 -29.53949 -31.34613
11.247 11.232 30.836487 -29.53949 -31.34613
11.269 11.252 31.221008 -29.156494 -30.969238
11.287 11.272 31.712341 -28.541565 -30.488586
11.307 11.292 31.503296 -28.541565 -30.69458
11.327 11.312 31.91986 -28.819275 -30.830383
11.347 11.332 32.04193 -29.667664 -31.471252
11.367 11.352 31.336975 -30.371094 -32.16095
11.387 11.373 31.056213 -29.815674 -32.84149
11.408 11.393 30.88379 -29.112244 -33.29773
11.427 11.413 31.169128 -29.206848 -32.64923
11.447 11.433 30.718994 -29.206848 -32.940674
11.468 11.453 30.091858 -29.432678 -33.22754
11.492 11.473 30.000305 -29.70581 -33.139038
11.508 11.493 29.101563 -30.11322 -33.535767
11.527 11.514 27.26593 -30.619812 -33.554077
11.546 11.534 26.327515 -30.703735 -33.139038
11.567 11.554 26.495361 -30.703735 -33.467102
11.587 11.574 26.911926 -31.123352 -33.052063
11.605 11.594 27.16217 -31.536865 -32.32422
11.628 11.614 27.978516 -31.265259 -33.120728
11.647 11.634 27.423096 -30.506897 -33.270264
11.667 11.654 26.327515 -30.038452 -32.8125
11.686 11.675 27.259827 -29.85382 -32.99408
11.706 11.695 26.947021 -30.561829 -33.23059
11.727 11.715 26.159668 -31.202698 -33.30078
11.746 11.735 26.64795 -30.911255 -33.013916
11.767 11.755 25.920105 -31.192017 -32.907104
11.787 11.775 25.158691 -31.536865 -32.97577
11.805 11.795 26.104736 -29.96521 -33.488464
11.827 11.816 26.04065 -29.040527 -34.19342
11.846 11.836 25.65918 -29.040527 -34.44214
11.867 11.856 26.301575 -30.107117 -34.44214
11.886 11.876 26.020813 -30.703735 -33.81653
11.906 11.896 25.65918 -30.703735 -33.46405
11.926 11.916 26.338196 -31.607056 -33.90503
11.947 11.936 27.32544 -32.478333 -33.68225
11.966 11.957 27.662659 -32.70111 -33.46405
11.986 11.977 26.61438 -31.65741 -32.894897
12.006 11.997 25.090027 -32.032776 -33.92334
12.027 12.017 24.656677 -32.36847 -34.44214
12.046 12.037 24.897766 -32.36847 -34.44214
12.066 12.057 25.71106 -32.608032 -34.207153
12.087 12.077 25.993347 -32.70111 -34.1156
12.107 12.098 26.229858 -32.937622 -34.80835
12.127 12.118 25.717163 -32.426453 -34.49707
12.146 12.138 25.492859 -32.20215 -34.27887
12.172 12.158 24.711609 -33.49762 -34.53064
12.186 12.178 24.74823 -33.351135 -33.84857
12.208 12.198 24.824524 -33.200073 -33.62732
12.227 12.218 24.824524 -32.157898 -34.648132
12.247 12.239 25.091553 -32.933044 -34.93042
12.266 12.259 25.158691 -33.200073 -34.93042
12.285 12.279 24.879456 -33.755493 -34.387207
12.306 12.299 23.44513 -33.865356 -34.81598
12.326 12.319 23.153687 -33.865356 -34.93042
12.345 12.339 23.29712 -33.436584 -34.788513
12.366 12.359 22.608948 -34.075928 -35.18219
12.386 12.380 22.486877 -34.197998 -35.255432
12.406 12.400 23.822021 -33.459473 -35.110474
12.427 12.420 23.693848 -34.83429 -35.09369
12.445 12.440 23.6557 -35.031128 -35.09369
12.465 12.460 22.43042 -32.89795 -34.196472
12.485 12.480 22.621155 -33.911133 -33.81958
12.505 12.500 22.653198 -34.031677 -33.79059
12.529 12.521 22.506714 -33.88672 -34.786987
12.546 12.541 22.640991 -33.40149 -34.475708
12.566 12.561 22.653198 -33.366394 -34.44214
12.585 12.581 22.653198 -33.68988 -34.44214
12.608 12.601 23.13385 -34.179688 -33.657837
12.641 12.621 23.153687 -34.197998 -33.62732
12.649 12.641 23.153687 -32.53479 -33.62732
12.683 12.662 22.82257 -34.51233 -32.981873
12.717 12.682 22.840881 -34.510803 -32.966614
12.737 12.702 24.034119 -33.403015 -32.460022
12.748 12.722 25.65918 -34.698486 -31.5094
12.766 12.742 25.634766 -34.6756 -31.590271
12.784 12.762 25.035095 -34.197998 -33.351135
12.804 12.782 22.819519 -34.197998 -34.27887
12.824 12.803 22.843933 -34.173584 -34.181213
12.848 12.823 23.069763 -33.865356 -33.00171
12.864 12.843 22.15271 -33.865356 -33.30078
12.884 12.863 22.167969 -33.850098 -33.283997
12.904 12.883 22.462463 -33.843994 -33.20923
12.925 12.903 23.6557 -35.031128 -33.79059
12.944 12.923 23.568726 -35.073853 -33.496094
12.967 12.944 22.964478 -35.209656 -31.530762
12.985 12.964 22.819519 -34.197998 -31.672668
13.006 12.984 22.949219 -34.017944 -31.84967
13.028 13.004 23.573303 -33.384705 -32.943726
13.045 13.024 23.153687 -35.19745 -33.62732
13.071 13.044 23.440552 -34.97467 -33.470154
13.085 13.064 24.656677 -34.38263 -32.87964
13.105 13.085 24.656677 -35.69641 -33.139038
13.128 13.105 24.795532 -35.627747 -32.728577
13.144 13.125 24.665833 -35.510254 -31.326294
13.171 13.145 22.31903 -36.029053 -31.835938
13.185 13.165 22.801208 -35.617065 -31.700134
13.209 13.185 24.327087 -34.44214 -30.943298
13.226 13.205 23.321533 -35.69641 -30.206299
13.256 13.226 23.501587 -35.517883 -30.732727
13.267 13.246 24.201965 -35.414124 -32.118225
13.286 13.266 24.824524 -36.528015 -31.99768
13.305 13.286 24.429321 -36.135864 -31.99768
13.326 13.306 23.536682 -34.94873 -31.948853
13.352 13.326 23.6557 -34.36432 -31.835938
13.364 13.346 23.547363 -34.90143 -31.625366
13.384 13.367 23.756409 -35.920715 -31.289673
13.408 13.387 24.656677 -35.69641 -31.5094
13.425 13.407 24.598694 -35.40802 -30.659485
13.446 13.427 24.31488 -35.273743 -29.693604
13.467 13.447 23.989868 -36.029053 -30.85785
13.485 13.467 24.243164 -36.28235 -30.732727
13.509 13.487 24.020386 -36.061096 -30.656433
13.526 13.508 22.987366 -35.031128 -30.85785
13.544 13.528 23.417664 -35.746765 -31.137085
13.568 13.548 23.851013 -36.694336 -31.910706
13.584 13.568 23.6557 -36.694336 -32.487488
13.607 13.588 23.435974 -36.76758 -31.417847
13.624 13.608 22.013855 -36.483765 -31.15387
13.651 13.628 20.64972 -36.029053 -32.487488
13.664 13.649 21.730042 -36.645508 -31.884766
13.684 13.669 22.753906 -37.283325 -31.562805
13.708 13.689 22.486877 -37.1933 -31.99768
13.725 13.709 22.738647 -37.61444 -31.750488
13.754 13.729 22.39685 -37.60681 -31.591797
13.764 13.749 21.818542 -37.1933 -31.672668
13.784 13.769 22.775269 -37.45575 -31.417847
13.807 13.790 23.168945 -37.3703 -31.025696
13.825 13.810 22.653198 -37.026978 -30.85785
13.845 13.830 23.210144 -36.657715 -30.13153
13.871 13.850 24.110413 -37.904358 -30.35431
13.883 13.870 24.490356 -39.190674 -31.021118
13.907 13.890 23.815918 -38.520813 -31.30188
13.923 13.910 23.025513 -37.928772 -30.453491
13.955 13.930 22.819519 -37.860107 -29.718018
13.965 13.951 23.324585 -37.358093 -30.799866
13.990 13.971 23.754883 -37.530518 -31.018066
14.005 13.991 23.822021 -37.860107 -30.69458
14.027 14.011 23.713684 -38.183594 -30.168152
14.053 14.031 23.97461 -37.40387 -29.151917
14.064 14.051 24.156189 -36.860657 -28.73993
14.081 14.071 24.708557 -38.07373 -28.201294
14.102 14.092 24.110413 -38.69171 -27.926636
14.120 14.112 23.6557 -38.69171 -27.926636
14.142 14.132 23.422241 -37.763977 -28.605652
14.162 14.152 23.091125 -38.27362 -28.903198
14.181 14.172 22.987366 -38.69171 -28.903198
14.201 14.192 23.706055 -38.453674 -28.669739
14.221 14.212 23.50769 -39.55841 -28.578186
14.242 14.233 23.321533 -40.022278 -28.578186
14.262 14.253 23.194885 -40.1474 -29.4281
14.282 14.273 22.782898 -40.06653 -28.631592
14.302 14.293 22.653198 -40.022278 -28.251648
14.336 14.313 22.891235 -39.309692 -28.018188
14.345 14.333 23.236084 -39.024353 -28.895569
14.362 14.353 23.321533 -39.024353 -29.229736
14.387 14.374 23.85559 -39.024353 -29.229736
14.403 14.394 23.32306 -39.686584 -27.801514
14.426 14.414 23.153687 -39.855957 -27.436829
14.452 14.434 23.422241 -40.12451 -27.436829
14.464 14.454 24.034119 -41.281128 -27.96936
14.483 14.474 24.156189 -41.52069 -28.088379
14.505 14.494 23.725891 -40.2359 -28.507996
14.534 14.515 23.228455 -39.59961 -28.439331
14.542 14.535 23.153687 -39.523315 -28.414917
14.567 14.555 23.449707 -40.40985 -28.9917
14.580 14.575 23.780823 -41.69464 -27.05841
14.600 14.595 23.822021 -41.853333 -26.785278
14.620 14.615 23.057556 -41.09192 -26.635742
14.641 14.635 23.287964 -41.322327 -27.503967
14.660 14.656 23.321533 -41.35437 -27.600098
14.681 14.676 23.007202 -41.6687 -27.293396
14.703 14.696 22.361755 -41.37726 -27.57721
14.720 14.716 22.31903 -41.35437 -27.600098
14.741 14.736 23.616028 -40.386963 -28.865051
14.760 14.756 22.691345 -41.316223 -27.023315
14.780 14.776 22.653198 -41.35437 -26.948547
14.800 14.797 24.316406 -41.68701 -26.298523
14.823 14.817 23.66333 -42.674255 -25.331116
14.869 14.837 23.667908 -42.678833 -25.306702
14.882 14.857 24.456787 -42.19513 -24.505615
14.903 14.877 23.153687 -42.518616 -24.505615
14.922 14.897 23.171997 -42.43622 -24.54834
14.948 14.917 23.698425 -40.348816 -25.619507
14.962 14.938 24.490356 -40.1886 -25.157166
14.985 14.958 24.430847 -40.293884 -25.213623
15.015 14.978 23.579407 -41.78772 -25.79956
15.024 14.998 22.653198 -43.01758 -23.690796
15.040 15.018 22.805786 -42.967224 -23.739624
15.064 15.038 24.064636 -42.46521 -24.267578
15.082 15.058 23.321533 -42.019653 -24.993896
15.100 15.079 23.46344 -41.98456 -25.027466
15.125 15.099 24.472046 -41.734314 -25.274658
15.140 15.119 23.321533 -42.019653 -24.993896
15.160 15.139 23.478699 -42.12494 -24.787903
15.185 15.159 24.093628 -42.799377 -23.690796
15.213 15.179 22.987366 -43.351746 -23.690796
15.219 15.199 23.16742 -42.99164 -23.513794
15.240 15.220 24.047852 -41.47339 -22.77069
15.258 15.240 24.32251 -42.019653 -23.039246
15.279 15.260 24.528503 -42.019653 -23.039246
15.299 15.280 25.488281 -41.792297 -23.197937
15.318 15.300 26.159668 -40.855408 -23.854065
15.339 15.320 25.558472 -41.13617 -23.736572
15.360 15.340 23.776245 -42.38434 -23.32611
15.381 15.361 24.156189 -43.518066 -23.202515
15.398 15.381 23.908997 -43.55316 -23.304749
15.418 15.401 22.62268 -43.504333 -23.956299
15.438 15.421 21.650696 -43.01758 -24.668884
15.460 15.441 22.138977 -42.921448 -24.668884
15.483 15.461 23.85559 -42.684937 -23.451233
15.499 15.481 25.325012 -42.684937 -20.106506
15.529 15.502 25.378418 -42.84668 -20.581055
15.540 15.522 24.517822 -43.1839 -21.572876
15.564 15.542 22.486877 -43.1839 -21.572876
15.580 15.562 22.54486 -43.008423 -21.629333
15.598 15.582 22.772217 -42.448425 -21.618652
15.618 15.602 22.987366 -42.019653 -21.409607
15.638 15.622 22.854614 -42.93976 -21.02356
15.658 15.643 23.191833 -44.08264 -20.169067
15.679 15.663 23.989868 -43.684387 -19.781494
15.697 15.683 23.510742 -43.20984 -20.245361
15.718 15.703 22.613525 -42.99774 -20.71991
15.740 15.723 22.31903 -43.684387 -20.433044
15.757 15.743 22.62268 -44.1391 -21.025085
15.782 15.763 23.205566 -44.174194 -21.237183
15.798 15.784 23.487854 -43.518066 -20.596313
15.818 15.804 23.332214 -43.518066 -20.443726
15.844 15.824 22.201538 -44.14978 -20.42389
15.861 15.844 21.150208 -44.848633 -20.596313
15.879 15.864 21.476746 -45.0119 -20.596313
15.903 15.884 21.736145 -45.59021 -20.036316
15.919 15.904 21.650696 -46.01288 -19.454956
15.943 15.925 21.20514 -45.39337 -19.19403
15.960 15.945 20.637512 -45.202637 -19.483948
15.980 15.965 20.481873 -45.513916 -19.944763
16.008 15.985 21.212769 -45.8786 -19.587708
16.020 16.005 20.722961 -46.1792 -20.1828
16.043 16.025 19.815063 -46.1792 -20.921326
16.058 16.045 19.618225 -46.376038 -20.15686
16.088 16.066 20.440674 -46.13037 -19.055176
16.098 16.086 21.150208 -45.846558 -18.641663
16.124 16.106 21.250916 -46.150208 -18.345642
16.138 16.126 21.318054 -45.93506 -18.554688
16.157 16.146 21.318054 -45.680237 -18.803406
16.176 16.166 20.895386 -45.680237 -18.803406
16.197 16.186 20.123291 -46.835327 -17.880249
16.216 16.206 19.815063 -47.51129 -17.338562
16.237 16.227 19.128418 -46.372986 -18.452454
16.259 16.247 19.146729 -47.07184 -17.985535
16.276 16.267 19.31305 -47.677612 -17.500305
16.296 16.287 19.888306 -48.25287 -16.712952
16.316 16.307 19.918823 -47.825623 -16.80603
16.335 16.327 19.815063 -47.51129 -17.012024
16.359 16.347 19.090271 -47.032166 -18.18695
16.379 16.368 17.63153 -46.376038 -17.95044
16.397 16.388 17.14325 -46.1792 -17.663574
16.419 16.408 17.63916 -47.66693 -16.693115
16.439 16.428 18.873596 -48.76709 -16.244507
16.459 16.448 19.31305 -49.00818 -16.197205
16.483 16.468 19.05365 -48.239136 -17.454529
16.499 16.488 17.440796 -48.776245 -17.826843
16.518 16.509 16.975403 -49.00818 -17.826843
16.553 16.529 17.333984 -48.88916 -17.474365
16.562 16.549 16.835022 -49.22638 -18.21289
16.580 16.569 16.641235 -49.342346 -18.478394
16.597 16.589 16.78009 -49.4812 -17.533875
16.617 16.609 15.985107 -49.235535 -17.070007
16.638 16.629 15.80658 -49.1745 -17.012024
16.664 16.650 15.237427 -48.32611 -16.734314
16.678 16.670 15.138245 -49.8703 -16.409302
16.698 16.690 15.138245 -50.17395 -16.360474
16.717 16.710 14.546204 -48.703003 -17.224121
16.738 16.730 14.030457 -47.488403 -16.337585
16.759 16.750 13.969421 -47.34497 -16.197205
16.782 16.770 14.273071 -49.468994 -16.494751
16.797 16.791 15.208435 -48.17047 -16.816711
16.817 16.811 15.306091 -48.010254 -16.848755
16.838 16.831 17.34314 -48.4787 -16.389465
16.869 16.851 13.899231 -48.97461 -16.207886
16.876 16.871 13.635254 -49.00818 -16.197205
16.895 16.891 13.957214 -48.687744 -15.882874
16.915 16.911 14.448547 -48.197937 -16.027832
16.937 16.932 14.46991 -48.176575 -16.035461
16.955 16.952 13.63678 -49.67041 -15.872192
16.975 16.972 13.800049 -49.51172 -15.068054
17.015 16.992 13.783264 -49.490356 -15.04364
17.036 17.012 12.454224 -48.15674 -14.131165
17.055 17.032 11.965942 -47.34497 -16.197205
17.075 17.052 11.985779 -47.366333 -16.175842
17.095 17.073 12.358093 -47.95227 -15.678406
17.114 17.093 10.128784 -50.17395 -15.057373
17.135 17.113 10.198975 -50.03357 -15.126038
17.157 17.133 11.051941 -48.12622 -16.11023
17.175 17.153 10.128784 -47.51129 -17.012024
17.198 17.173 10.20813 -47.56012 -16.777039
17.216 17.193 10.877991 -48.094177 -14.7491455
17.236 17.214 10.128784 -48.841858 -16.360474
17.266 17.234 9.980774 -48.612976 -16.25824
17.276 17.254 8.959961 -47.01233 -15.501404
17.295 17.274 8.959961 -47.01233 -15.220642
17.317 17.294 8.71582 -47.317505 -15.397644
17.336 17.314 7.7804565 -48.675537 -15.991211
17.364 17.334 8.625793 -48.675537 -14.894104
17.375 17.355 8.685303 -48.675537 -14.715576
17.395 17.375 9.056091 -48.643494 -14.138794
17.417 17.395 9.460449 -48.509216 -15.057373
17.436 17.415 10.009766 -48.85254 -14.990234
17.457 17.435 11.772156 -50.317383 -14.520264
17.474 17.455 10.462952 -50.839233 -13.754272
17.495 17.475 10.804749 -50.575256 -14.013672
17.517 17.496 11.6622925 -49.57428 -14.794922
17.534 17.516 10.462952 -49.1745 -14.405823
17.554 17.536 10.551453 -49.528503 -14.491272
17.574 17.556 10.128784 -50.108337 -14.775085
17.596 17.576 8.291626 -49.00818 -14.894104
17.613 17.596 8.255005 -49.406433 -14.7872925
17.634 17.616 8.52356 -50.442505 -14.599609
17.654 17.637 9.460449 -49.508667 -15.057373
17.673 17.657 9.887695 -49.082947 -14.326477
17.699 17.677 10.264587 -48.225403 -13.1073
17.713 17.697 8.959961 -48.342896 -13.9175415
17.733 17.717 8.784485 -48.98529 -13.859558
17.754 17.737 9.159851 -50.057983 -13.525391
17.772 17.757 10.462952 -49.84131 -13.102722
17.793 17.778 10.966492 -49.464417 -12.85553
17.820 17.798 11.04126 -49.21875 -12.6953125
17.834 17.818 9.794617 -49.84131 -13.102722
17.855 17.838 10.075378 -49.142456 -13.240051
17.874 17.858 10.533142 -48.675537 -13.35907
17.896 17.878 10.629272 -49.342346 -13.265991
17.915 17.898 9.9105835 -49.48578 -13.404846
17.935 17.919 8.743286 -50.177002 -13.94043
17.956 17.939 8.459473 -50.839233 -14.405823
17.975 17.959 8.5372925 -50.445557 -14.0182495
17.997 17.979 7.624817 -49.778748 -13.365173
18.021 17.999 6.454468 -49.508667 -13.102722
18.036 18.019 6.3720703 -49.752808 -13.978577
18.058 18.039 7.3776245 -49.925232 -13.830566
18.076 18.060 8.459473 -49.84131 -12.77771
18.095 18.080 8.024597 -49.235535 -13.200378
18.115 18.100 7.8826904 -48.762512 -14.52179
18.138 18.120 8.125305 -48.841858 -15.383911
18.152 18.140 7.562256 -49.40338 -13.920593
18.180 18.160 6.6574097 -50.305176 -13.049316
18.197 18.180 6.288147 -50.672913 -13.265991
18.220 18.201 7.347107 -49.809265 -13.546753
18.234 18.221 7.356262 -49.55902 -13.566589
18.258 18.241 6.7886353 -49.84131 -13.42926
18.276 18.261 7.5012207 -49.13025 -14.321899
18.306 18.281 6.5612793 -48.675537 -13.726807
18.314 18.301 5.619812 -48.675537 -12.939453
18.334 18.321 5.5145264 -48.15216 -14.0686035
18.358 18.342 5.773926 -49.02191 -13.578796
18.375 18.362 5.9539795 -49.674988 -12.939453
18.396 18.382 4.638672 -49.238586 -12.939453
18.419 18.402 5.479431 -49.88098 -13.15155
18.433 18.422 6.288147 -50.34027 -13.265991
18.457 18.442 6.0516357 -48.93341 -13.954163
18.476 18.462 5.8380127 -47.538757 -13.453674
18.494 18.482 5.7876587 -47.17865 -13.102722
18.514 18.503 5.0704956 -47.654724 -13.801575
18.540 18.523 3.8330078 -47.60742 -14.311218
18.555 18.543 3.4484863 -47.51129 -14.405823
18.576 18.563 3.8146973 -47.877502 -13.569641
18.602 18.583 3.3325195 -48.13385 -13.868713
18.615 18.603 3.1158447 -48.176575 -14.080811
18.634 18.623 2.986145 -47.021484 -14.457703
18.653 18.644 3.7872314 -47.517395 -14.451599
18.671 18.664 4.1168213 -47.843933 -14.405823
18.693 18.684 2.911377 -47.71118 -13.752747
18.711 18.704 1.6830444 -46.751404 -14.237976
18.730 18.724 1.4450073 -46.513367 -14.405823
18.754 18.744 2.9052734 -47.727966 -14.167786
18.772 18.764 2.520752 -47.517395 -13.951111
18.792 18.785 2.279663 -47.34497 -13.9175415
18.810 18.805 2.1362305 -47.488403 -12.940979
18.831 18.825 1.1199951 -48.217773 -14.8498535
18.850 18.845 0.94451904 -48.342896 -15.220642
18.872 18.865 0.7949829 -46.72699 -14.788818
18.895 18.885 0.33874512 -47.821045 -14.019775
18.918 18.905 0.27618408 -48.010254 -13.9175415
18.932 18.926 0.579834 -47.10083 -14.213562
18.956 18.946 1.5151978 -48.21472 -13.653564
18.970 18.966 1.612854 -48.342896 -13.591003
18.991 18.986 1.9241333 -46.15326 -13.897705
19.011 19.006 0.8544922 -46.791077 -15.586853
19.030 19.026 0.77667236 -46.84601 -15.708923
19.050 19.046 2.5436401 -47.32666 -15.864563
19.074 19.067 0.8590698 -44.644165 -15.405273
19.090 19.087 0.77667236 -44.51599 -15.383911
19.110 19.107 0.44403076 -47.502136 -15.383911
19.130 19.127 -0.05340576 -45.37506 -15.222168
19.171 19.147 -0.06713867 -45.35675 -15.213013
19.191 19.167 -0.87280273 -46.138 -14.425659
19.211 19.187 0.10986328 -44.18335 -15.383911
19.235 19.208 0.09460449 -44.23828 -15.396118
19.252 19.228 -0.25024414 -45.539856 -15.684509
19.276 19.248 -0.72631836 -46.01288 -15.220642
19.297 19.268 -0.692749 -46.025085 -15.187073
19.312 19.288 -0.18615723 -46.087646 -14.796448
19.329 19.308 0.27618408 -45.014954 -15.545654
19.349 19.328 0.29296875 -45.132446 -15.4953
19.372 19.349 0.44403076 -46.107483 -15.057373
19.389 19.369 0.44403076 -45.513916 -15.057373
19.409 19.389 0.3326416 -45.536804 -15.034485
19.429 19.409 -0.50201416 -45.680237 -15.106201
19.449 19.429 -1.05896 -45.680237 -16.197205
19.469 19.449 -0.9033203 -45.576477 -15.992737
19.490 19.469 -0.21514893 -45.066833 -14.944458
19.509 19.490 -1.05896 -45.347595 -15.220642
19.529 19.510 -1.1657715 -45.45288 -15.185547
19.551 19.530 -1.9088745 -45.8786 -15.02533
19.571 19.550 -3.3981323 -46.01288 -14.894104
19.591 19.570 -3.0792236 -45.61615 -14.894104
19.610 19.590 -1.9515991 -44.314575 -15.144348
19.635 19.610 -1.5609741 -44.18335 -16.035461
19.653 19.631 -1.5213013 -44.303894 -16.464233
19.671 19.651 -1.3534546 -44.47937 -17.466736
19.699 19.671 -1.2268066 -43.850708 -16.360474
19.713 19.691 -1.600647 -44.140625 -16.642761
19.731 19.711 -2.7648926 -44.981384 -17.193604
19.752 19.731 -2.8961182 -44.848633 -16.035461
19.784 19.751 -2.8961182 -44.552612 -15.937805
19.791 19.772 -2.6474 -44.400024 -15.853882
19.817 19.792 -2.0614624 -45.680237 -16.197205
19.830 19.812 -2.2491455 -45.34607 -16.0141
19.863 19.832 -2.8961182 -44.51294 -15.919495
19.876 19.852 -2.8961182 -45.181274 -17.012024
19.890 19.872 -2.7175903 -44.885254 -16.487122
19.912 19.892 -2.8152466 -44.29016 -15.95459
19.934 19.913 -3.5644531 -44.18335 -16.687012
19.954 19.933 -3.8223267 -43.928528 -16.810608
19.980 19.953 -3.163147 -43.251038 -16.880798
19.991 19.973 -1.5609741 -42.851257 -16.687012
20.010 19.993 -2.6641846 -43.676758 -16.551208
20.036 20.013 -4.1641235 -44.0979 -15.623474
20.050 20.033 -4.0649414 -43.01758 -14.569092
20.068 20.054 -4.142761 -44.319153 -15.242004
20.088 20.074 -4.4647217 -44.847107 -16.410828
20.107 20.094 -4.7332764 -43.684387 -16.848755
20.127 20.114 -3.6254883 -43.52722 -17.002869
20.149 20.134 -3.5858154 -43.74695 -17.4057
20.167 20.154 -4.901123 -44.18335 -17.663574
20.187 20.174 -5.0720215 -43.499756 -16.993713
20.207 20.195 -4.891968 -43.707275 -16.694641
20.227 20.215 -4.5669556 -44.51599 -17.012024
20.248 20.235 -4.5669556 -45.040894 -16.326904
20.267 20.255 -5.015564 -43.997192 -16.319275
20.287 20.275 -5.4016113 -42.684937 -16.848755
20.307 20.295 -5.4016113 -43.237305 -17.567444
20.328 20.315 -4.6661377 -43.867493 -16.716003
20.352 20.336 -4.0649414 -44.01703 -15.545654
20.367 20.356 -4.86145 -43.421936 -16.516113
20.395 20.376 -5.696106 -43.312073 -17.269897
20.408 20.396 -5.9020996 -43.518066 -17.338562
20.430 20.416 -4.88739 -43.315125 -16.741943
20.449 20.436 -4.537964 -42.477417 -17.051697
20.472 20.456 -4.7332764 -42.019653 -17.500305
20.489 20.477 -5.595398 -43.093872 -18.55011
20.513 20.497 -5.859375 -43.47534 -18.511963
20.529 20.517 -5.735779 -43.351746 -18.151855
20.550 20.537 -6.628418 -43.574524 -18.586731
20.572 20.557 -6.3827515 -43.684387 -17.680359
20.588 20.577 -6.0699463 -43.684387 -17.175293
20.607 20.597 -6.4193726 -44.26422 -17.74292
20.629 20.618 -5.8761597 -43.133545 -17.538452
20.647 20.638 -5.567932 -42.518616 -17.338562
20.674 20.658 -5.6869507 -42.869568 -17.680359
20.692 20.678 -6.6848755 -43.255615 -17.362976
20.711 20.698 -7.070923 -43.351746 -17.175293
20.729 20.718 -6.6955566 -43.478394 -17.297363
20.746 20.738 -6.6955566 -42.893982 -17.704773
20.768 20.759 -6.7367554 -42.684937 -17.826843
20.787 20.779 -5.079651 -42.55829 -17.204285
20.806 20.799 -5.8654785 -43.814087 -18.025208
20.828 20.819 -6.236267 -44.18335 -18.315125
20.846 20.839 -5.69458 -44.18335 -17.256165
20.865 20.859 -5.97229 -43.24646 -17.404175
20.886 20.879 -6.0699463 -43.01758 -17.500305
20.905 20.900 -5.6488037 -42.878723 -17.089844
20.931 20.920 -5.706787 -42.715454 -16.877747
20.946 20.940 -5.735779 -42.684937 -16.848755
20.966 20.960 -6.895447 -42.974854 -17.697144
20.993 20.980 -5.781555 -43.16101 -17.686462
21.011 21.000 -5.567932 -43.1839 -17.663574
21.029 21.020 -6.916809 -42.437744 -16.931152
21.056 21.040 -7.6660156 -41.76178 -18.296814
21.068 21.061 -7.739258 -41.68701 -18.478394
21.092 21.081 -7.8933716 -42.149353 -17.118835
21.107 21.101 -8.366394 -41.72821 -17.459106
21.127 21.121 -8.407593 -41.68701 -17.500305
21.155 21.141 -6.9747925 -41.845703 -18.588257
21.167 21.161 -7.6950073 -42.955017 -18.486023
21.189 21.181 -7.739258 -43.01758 -18.478394
21.206 21.202 -8.724976 -43.01758 -17.515564
21.242 21.222 -8.255005 -42.21039 -17.65747
21.274 21.242 -8.239746 -42.181396 -17.662048
21.286 21.262 -8.236694 -40.522766 -17.349243
21.305 21.282 -7.9055786 -40.522766 -18.315125
21.325 21.302 -7.8948975 -40.534973 -18.302917
21.344 21.322 -7.623291 -40.8844 -17.99469
21.364 21.343 -9.075928 -41.68701 -18.151855
21.386 21.363 -9.056091 -41.68701 -18.270874
21.405 21.383 -8.776855 -41.69922 -19.981384
21.424 21.403 -9.242249 -41.853333 -18.315125
21.444 21.423 -9.255981 -41.731262 -18.301392
21.465 21.443 -9.376526 -40.226746 -18.182373
21.488 21.463 -9.075928 -39.024353 -18.478394
21.506 21.484 -9.054565 -39.06555 -18.473816
21.538 21.504 -8.477783 -40.405273 -18.353271
21.548 21.524 -10.244751 -39.523315 -18.641663
21.574 21.544 -10.02655 -39.839172 -18.522644
21.585 21.564 -8.869934 -41.407776 -17.901611
21.604 21.584 -9.576416 -39.855957 -18.315125
21.624 21.604 -9.606934 -40.005493 -18.4021
21.645 21.625 -9.840393 -40.592957 -18.833923
21.664 21.645 -10.244751 -40.1886 -18.966675
21.684 21.665 -10.38208 -40.394592 -19.032288
21.706 21.685 -10.491943 -40.979004 -19.566345
21.724 21.705 -8.908081 -40.1886 -20.596313
21.743 21.725 -9.216309 -40.15503 -20.361328
21.764 21.745 -10.769653 -39.98413 -19.337463
21.785 21.766 -11.9140625 -39.855957 -18.966675
21.803 21.786 -11.390686 -39.509583 -18.881226
21.825 21.806 -9.869385 -38.734436 -18.925476
21.843 21.826 -9.742737 -39.356995 -19.781494
21.867 21.846 -10.07843 -39.500427 -19.641113
21.886 21.866 -10.720825 -39.665222 -19.293213
21.904 21.886 -10.244751 -39.190674 -19.293213
21.928 21.907 -10.298157 -38.29651 -19.137573
21.945 21.927 -10.411072 -36.787415 -19.425964
21.969 21.947 -10.411072 -37.693787 -20.758057
21.986 21.967 -11.329651 -38.15155 -20.309448
22.018 21.987 -12.220764 -38.739014 -19.509888
22.027 22.007 -10.578918 -38.19275 -19.618225
22.046 22.027 -11.203003 -38.19275 -19.618225
22.070 22.048 -11.997986 -38.44452 -20.108032
22.089 22.068 -11.579895 -38.858032 -20.921326
22.111 22.088 -12.007141 -38.575745 -20.367432
22.125 22.108 -12.582397 -37.384033 -20.013428
22.144 22.128 -12.582397 -36.195374 -20.596313
22.168 22.148 -12.294006 -36.772156 -20.596313
22.187 22.168 -12.516785 -37.078857 -20.301819
22.205 22.189 -13.250732 -36.528015 -19.944763
22.232 22.209 -13.020325 -36.299133 -20.018005
22.244 22.229 -12.904358 -36.33728 -20.407104
22.269 22.249 -13.082886 -36.694336 -20.758057
22.293 22.269 -12.832642 -36.77826 -21.165466
22.306 22.289 -13.252258 -37.52899 -21.572876
22.327 22.309 -13.9175415 -38.19275 -21.572876
22.344 22.330 -13.571167 -37.8479 -20.55664
22.367 22.350 -14.1189575 -36.48987 -20.463562
22.383 22.370 -14.920044 -35.53009 -21.247864
22.406 22.390 -13.893127 -35.250854 -21.520996
22.430 22.410 -13.540649 -36.035156 -21.824646
22.444 22.430 -13.9175415 -36.860657 -21.899414
22.466 22.450 -13.53302 -36.2854 -21.522522
22.485 22.471 -13.447571 -35.273743 -22.016907
22.505 22.491 -13.583374 -34.864807 -22.550964
22.527 22.511 -13.786316 -34.664917 -22.3526
22.548 22.531 -14.019775 -35.43701 -22.912598
22.568 22.551 -14.085388 -36.029053 -23.365784
22.585 22.571 -13.645935 -35.810852 -22.720337
22.604 22.591 -14.276123 -35.27069 -21.968079
22.624 22.612 -14.753723 -35.031128 -21.736145
22.648 22.632 -13.978577 -34.47876 -22.059631
22.664 22.652 -14.247131 -34.41925 -23.085022
22.684 22.672 -14.585876 -34.532166 -23.527527
22.710 22.692 -13.887024 -34.300232 -23.07129
22.724 22.712 -13.929749 -34.313965 -22.764587
22.741 22.732 -14.085388 -34.36432 -22.714233
22.761 22.753 -14.930725 -33.76465 -21.888733
22.782 22.773 -14.761353 -34.27124 -23.976135
22.802 22.793 -14.585876 -34.532166 -24.830627
22.820 22.813 -13.960266 -34.1568 -22.753906
22.841 22.833 -15.496826 -33.535767 -22.790527
22.860 22.853 -16.088867 -33.366394 -23.039246
22.882 22.873 -15.135193 -32.65381 -22.340393
22.902 22.894 -13.873291 -32.74536 -23.6557
22.921 22.914 -13.583374 -32.86743 -24.179077
22.941 22.934 -14.395142 -33.944702 -23.651123
22.962 22.954 -15.391541 -33.93097 -24.050903
22.980 22.974 -15.588379 -33.865356 -24.179077
23.009 22.994 -14.7491455 -33.587646 -25.27008
23.028 23.014 -14.865112 -31.872559 -25.210571
23.044 23.035 -14.920044 -31.536865 -25.157166
23.065 23.055 -15.792847 -32.984924 -23.738098
23.087 23.075 -17.364502 -32.339478 -24.371338
23.101 23.095 -17.591858 -32.20215 -24.505615
23.120 23.115 -16.390991 -33.099365 -24.505615
23.141 23.135 -16.851807 -31.419373 -24.794006
23.163 23.155 -16.923523 -31.202698 -24.830627
23.180 23.176 -18.318176 -30.740356 -24.679565
23.201 23.196 -16.738892 -31.163025 -24.517822
23.220 23.216 -16.589355 -31.202698 -24.505615
23.240 23.236 -16.270447 -33.111572 -23.570251
23.262 23.256 -16.41388 -32.41577 -23.065186
23.279 23.276 -16.423035 -32.36847 -23.039246
23.303 23.296 -17.733765 -33.348083 -24.317932
23.324 23.316 -16.31012 -31.602478 -24.499512
23.343 23.337 -16.255188 -31.536865 -24.505615
23.390 23.357 -16.088867 -33.36487 -23.695374
23.391 23.377 -16.088867 -33.033752 -24.342346
23.423 23.397 -16.088867 -32.95746 -24.313354
23.443 23.417 -16.134644 -30.44281 -23.422241
23.472 23.437 -17.25769 -32.20215 -24.830627
23.484 23.457 -17.152405 -32.23114 -24.745178
23.512 23.478 -15.39917 -32.67975 -23.342896
23.526 23.498 -15.086365 -32.36847 -23.039246
23.539 23.518 -15.21759 -32.470703 -23.19336
23.560 23.538 -16.589355 -33.442688 -24.830627
23.579 23.558 -16.589355 -32.53479 -24.830627
23.599 23.578 -16.473389 -32.458496 -24.565125
23.620 23.598 -15.5685425 -31.932068 -22.773743
23.638 23.619 -15.420532 -32.36847 -24.342346
23.659 23.639 -15.538025 -32.13806 -24.568176
23.679 23.659 -16.23993 -30.937195 -25.497437
23.699 23.679 -17.09137 -30.371094 -24.668884
23.720 23.699 -16.801453 -30.48706 -24.497986
23.738 23.719 -15.795898 -30.91278 -23.750305
23.762 23.739 -17.425537 -30.371094 -24.017334
23.780 23.760 -17.192078 -30.404663 -24.049377
23.803 23.780 -16.221619 -30.711365 -24.34845
23.820 23.800 -16.088867 -31.369019 -24.993896
23.842 23.820 -16.088867 -31.369019 -24.848938
23.870 23.840 -16.157532 -31.10199 -24.145508
23.880 23.860 -16.423035 -30.038452 -23.365784
23.906 23.880 -16.293335 -30.255127 -23.492432
23.920 23.901 -16.27655 -30.870056 -24.024963
23.949 23.921 -17.25769 -30.870056 -24.505615
23.963 23.941 -17.329407 -30.72815 -24.92218
23.980 23.961 -17.445374 -30.255127 -26.507568
24.005 23.981 -17.09137 -30.371094 -26.623535
24.021 24.001 -17.677307 -29.89502 -26.777649
24.041 24.021 -18.606567 -28.553772 -26.272583
24.069 24.042 -17.926025 -27.874756 -24.505615
24.080 24.062 -18.276978 -28.689575 -24.960327
24.103 24.082 -19.049072 -29.603577 -26.043701
24.120 24.102 -19.26117 -28.541565 -26.460266
24.139 24.122 -19.073486 -28.730774 -26.152039
24.164 24.142 -19.14215 -28.66211 -25.52185
24.179 24.162 -19.763184 -28.041077 -25.320435
24.205 24.183 -19.342041 -28.041077 -25.320435
24.220 24.203 -18.191528 -28.468323 -25.598145
24.240 24.223 -17.425537 -29.040527 -25.971985
24.268 24.243 -18.008423 -28.315735 -26.112366
24.279 24.263 -18.615723 -27.230835 -25.869751
24.299 24.283 -18.426514 -27.043152 -25.320435
24.319 24.303 -18.188477 -27.760315 -25.396729
24.355 24.324 -18.159485 -28.775024 -25.556946
24.359 24.344 -18.426514 -29.040527 -25.645447
24.379 24.364 -18.345642 -29.122925 -26.203918
24.405 24.384 -17.506409 -29.290771 -25.393677
24.417 24.404 -16.757202 -29.373169 -24.017334
24.439 24.424 -17.718506 -28.764343 -24.612427
24.466 24.444 -18.333435 -27.600098 -25.923157
24.478 24.465 -18.092346 -27.043152 -26.623535
24.497 24.485 -18.188477 -28.456116 -26.161194
24.535 24.505 -18.913269 -28.704834 -25.535583
24.539 24.525 -19.429016 -28.041077 -25.320435
24.559 24.545 -18.367004 -27.752686 -25.413513
24.577 24.565 -17.979431 -27.926636 -25.292969
24.597 24.585 -18.260193 -28.207397 -25.157166
24.619 24.606 -18.363953 -27.900696 -24.653625
24.636 24.626 -17.10968 -28.012085 -24.440002
24.656 24.646 -16.255188 -28.207397 -24.505615
24.676 24.666 -17.10968 -29.058838 -25.33722
24.696 24.686 -18.24646 -29.322815 -25.595093
24.719 24.706 -18.59436 -29.206848 -25.482178
24.736 24.726 -17.259216 -28.541565 -25.698853
24.756 24.747 -17.033386 -28.651428 -26.023865
24.776 24.767 -17.25769 -28.874207 -26.133728
24.796 24.787 -17.607117 -28.063965 -25.793457
24.824 24.807 -18.10608 -28.973389 -24.858093
24.837 24.827 -18.260193 -29.53949 -24.505615
24.856 24.847 -18.502808 -29.53949 -25.683594
24.880 24.867 -17.274475 -28.46222 -25.54779
24.900 24.888 -16.757202 -28.041077 -25.320435
24.934 24.908 -17.622375 -28.164673 -25.680542
24.936 24.928 -17.926025 -28.936768 -26.283264
24.955 24.948 -17.926025 -29.206848 -26.460266
24.975 24.968 -16.618347 -29.467773 -25.949097
24.997 24.988 -17.459106 -29.53949 -25.572205
25.017 25.008 -17.926025 -29.53949 -25.482178
25.035 25.029 -18.47229 -29.26941 -24.949646
25.055 25.049 -16.296387 -29.881287 -26.017761
25.075 25.069 -15.7547 -30.038452 -26.296997
25.094 25.089 -16.880798 -29.199219 -25.74768
25.115 25.109 -17.372131 -30.155945 -25.372314
25.134 25.129 -17.425537 -30.371094 -25.320435
25.155 25.149 -15.238953 -27.610779 -24.60785
25.176 25.170 -15.789795 -28.941345 -27.326965
25.195 25.190 -15.922546 -29.206848 -27.763367
25.217 25.210 -16.073608 -30.558777 -25.262451
25.236 25.230 -16.687012 -28.619385 -24.993896
25.259 25.250 -16.757202 -28.373718 -24.993896
25.280 25.270 -18.304443 -28.9917 -26.200867
25.311 25.290 -17.796326 -29.66919 -27.218628
25.320 25.311 -17.758179 -29.70581 -27.275085
25.340 25.331 -16.171265 -28.123474 -26.963806
25.354 25.351 -17.358398 -31.199646 -27.2583
25.374 25.371 -17.425537 -31.369019 -27.275085
25.398 25.391 -16.931152 -30.220032 -27.113342
25.415 25.411 -17.414856 -29.067993 -27.270508
25.454 25.431 -17.433167 -29.04663 -27.272034
25.474 25.452 -18.592834 -29.867554 -26.786804
25.497 25.472 -18.426514 -29.373169 -26.948547
25.514 25.492 -18.403625 -29.457092 -26.942444
25.534 25.512 -17.570496 -32.23877 -26.805115
25.554 25.532 -17.09137 -33.033752 -27.275085
25.577 25.552 -17.123413 -33.003235 -27.204895
25.600 25.572 -17.63916 -32.418823 -26.133728
25.615 25.592 -18.260193 -30.870056 -26.133728
25.636 25.613 -18.183899 -30.978394 -26.05896
25.656 25.633 -17.359924 -32.136536 -25.416565
25.677 25.653 -16.757202 -33.033752 -26.296997
25.695 25.673 -16.71753 -32.913208 -26.296997
25.723 25.693 -16.287231 -32.12738 -26.119995
25.735 25.713 -15.420532 -32.70111 -24.993896
25.755 25.733 -15.811157 -32.88269 -24.917603
25.776 25.754 -17.492676 -33.496094 -24.505615
25.796 25.774 -15.588379 -31.869507 -24.505615
25.827 25.794 -15.5303955 -31.811523 -24.562073
25.836 25.814 -15.162659 -31.445313 -24.80011
25.859 25.834 -14.753723 -31.036377 -24.668884
25.878 25.854 -14.904785 -31.489563 -24.742126
25.895 25.874 -15.386963 -33.27942 -25.027466
25.914 25.895 -15.254211 -34.197998 -25.157166
25.933 25.915 -14.859009 -33.961487 -25.079346
25.955 25.935 -14.364624 -32.8125 -24.754333
25.974 25.955 -16.923523 -31.536865 -24.505615
25.993 25.975 -16.479492 -31.713867 -24.591064
26.014 25.995 -15.299988 -32.06787 -24.786377
26.033 26.015 -15.420532 -31.703186 -24.668884
26.056 26.036 -14.979553 -31.439209 -24.494934
26.073 26.056 -14.108276 -31.201172 -24.017334
26.096 26.076 -15.420532 -33.033752 -24.017334
26.115 26.096 -15.420532 -32.82013 -23.492432
26.144 26.116 -14.935303 -32.4234 -22.54486
26.151 26.136 -13.9175415 -32.53479 -22.875977
26.175 26.156 -14.215088 -32.476807 -23.512268
26.193 26.177 -15.168762 -32.192993 -24.725342
26.213 26.197 -15.922546 -31.869507 -24.830627
26.232 26.217 -15.098572 -31.55365 -24.768066
26.253 26.237 -14.646912 -31.547546 -24.293518
26.272 26.257 -16.088867 -32.36847 -23.690796
26.292 26.277 -15.545654 -32.36847 -23.690796
26.312 26.297 -14.753723 -32.36847 -23.96698
26.332 26.318 -14.753723 -32.36847 -24.342346
26.352 26.338 -15.335083 -31.933594 -23.77472
26.372 26.358 -16.01715 -31.58722 -24.102783
26.395 26.378 -15.922546 -31.869507 -25.482178
26.413 26.398 -15.211487 -31.161499 -24.479675
26.435 26.418 -14.9002075 -31.008911 -24.143982
26.455 26.438 -15.420532 -31.703186 -24.993896
26.486 26.459 -15.586853 -31.538391 -25.314331
26.495 26.479 -15.509033 -31.944275 -24.760437
26.516 26.499 -15.254211 -32.53479 -23.854065
26.537 26.519 -15.075684 -32.89032 -24.201965
26.570 26.539 -14.920044 -32.8537 -24.163818
26.574 26.559 -14.920044 -32.53479 -23.854065
26.605 26.579 -15.2908325 -31.983948 -23.672485
26.614 26.600 -14.927673 -32.385254 -24.357605
26.633 26.620 -14.419556 -33.033752 -24.993896
26.651 26.640 -13.838196 -33.613586 -24.804688
26.671 26.660 -14.677429 -33.35724 -23.628235
26.691 26.680 -15.588379 -32.86743 -22.875977
26.710 26.700 -15.484619 -32.76367 -22.569275
26.732 26.720 -14.5980835 -32.907104 -22.988892
26.751 26.741 -14.085388 -33.033752 -23.365784
26.772 26.761 -14.299011 -32.39746 -23.780823
26.791 26.781 -13.88855 -32.565308 -23.704529
26.810 26.801 -13.583374 -32.86743 -23.527527
26.834 26.821 -13.697815 -32.30591 -22.976685
26.858 26.841 -13.641357 -32.366943 -23.03772
26.872 26.861 -13.583374 -32.53479 -23.202515
26.895 26.882 -14.630127 -32.42035 -23.31543
26.912 26.902 -13.4262085 -33.078003 -24.290466
26.934 26.922 -12.748718 -33.366394 -24.668884
26.953 26.942 -13.839722 -33.00476 -24.549866
26.977 26.962 -14.251709 -32.147217 -24.034119
26.992 26.982 -14.251709 -31.869507 -23.854065
27.017 27.002 -14.015198 -30.923462 -23.620605
27.033 27.023 -14.163208 -32.00531 -22.808838
27.053 27.043 -14.251709 -32.53479 -22.550964
27.086 27.063 -14.515686 -32.01294 -24.085999
27.093 27.083 -14.585876 -31.610107 -25.013733
27.121 27.103 -14.585876 -31.536865 -25.157166
27.132 27.123 -14.720154 -32.72705 -24.250793
27.150 27.143 -14.212036 -31.684875 -25.073242
27.170 27.164 -14.085388 -31.369019 -25.320435
27.190 27.184 -14.369202 -32.214355 -23.94104
27.209 27.204 -14.701843 -31.526184 -24.789429
27.230 27.224 -14.753723 -31.369019 -24.993896
27.252 27.244 -14.021301 -31.808472 -25.135803
27.270 27.264 -14.498901 -31.581116 -24.591064
27.289 27.284 -14.585876 -31.536865 -24.505615
27.309 27.305 -14.585876 -31.236267 -25.682068
27.331 27.325 -14.286804 -30.607605 -25.515747
27.350 27.345 -14.251709 -30.537415 -25.482178
27.371 27.365 -14.720154 -31.625366 -25.331116
27.390 27.385 -13.671875 -31.550598 -24.867249
27.415 27.405 -13.583374 -31.536865 -24.830627
27.432 27.425 -14.5477295 -30.895996 -25.143433
27.452 27.446 -15.542603 -32.141113 -26.087952
27.470 27.466 -15.588379 -32.20215 -26.133728
27.493 27.486 -15.258789 -32.20215 -26.779175
27.511 27.506 -15.911865 -32.20215 -25.505066
27.552 27.526 -15.911865 -32.174683 -25.488281
27.579 27.546 -14.987183 -29.544067 -26.115417
27.591 27.566 -18.092346 -29.70581 -25.320435
27.616 27.587 -17.996216 -29.829407 -25.360107
27.630 27.607 -15.731812 -32.69348 -26.272583
27.663 27.627 -15.254211 -32.53479 -25.808716
27.673 27.647 -15.254211 -32.489014 -25.852966
27.696 27.667 -15.124512 -31.906128 -26.402283
27.709 27.687 -13.417053 -32.36847 -25.645447
27.729 27.707 -13.569641 -32.356262 -25.68512
27.748 27.728 -15.077209 -32.20215 -26.063538
27.768 27.748 -13.583374 -32.20215 -25.482178
27.788 27.768 -13.787842 -32.20215 -25.442505
27.810 27.788 -15.232849 -32.225037 -25.090027
27.832 27.808 -15.086365 -32.36847 -24.668884
27.848 27.828 -14.982605 -32.26471 -24.668884
27.868 27.848 -14.816284 -31.759644 -24.88861
27.888 27.868 -16.757202 -32.035828 -25.971985
27.907 27.889 -16.061401 -32.12738 -25.881958
27.937 27.909 -13.484192 -32.221985 -25.604248
27.952 27.929 -15.922546 -30.870056 -26.133728
27.970 27.949 -15.992737 -30.940247 -25.997925
27.994 27.969 -16.159058 -31.365967 -25.64087
28.009 27.989 -15.7547 -32.035828 -26.296997
28.046 28.009 -15.512085 -31.956482 -26.612854
28.051 28.030 -14.753723 -31.29425 -27.198792
28.075 28.050 -14.753723 -30.038452 -25.971985
28.087 28.070 -14.790344 -30.43518 -25.935364
28.108 28.090 -15.296936 -31.49414 -25.808716
28.128 28.110 -16.255188 -30.537415 -25.808716
28.147 28.130 -16.305542 -30.389404 -25.759888
28.170 28.150 -16.423035 -30.038452 -26.187134
28.187 28.171 -16.423035 -30.038452 -27.600098
28.207 28.191 -15.919495 -30.653381 -27.545166
28.228 28.211 -15.1474 -31.532288 -26.88446
28.246 28.231 -15.588379 -30.870056 -25.808716
28.267 28.251 -16.151428 -30.683899 -25.990295
28.287 28.271 -16.773987 -29.80194 -27.226257
28.306 28.291 -16.255188 -28.874207 -28.73993
28.334 28.312 -16.595459 -28.942871 -28.144836
28.348 28.332 -17.022705 -29.385376 -26.937866
28.368 28.352 -16.923523 -29.872131 -26.460266
28.388 28.372 -17.274475 -29.664612 -26.11847
28.409 28.392 -17.337036 -28.953552 -25.782776
28.429 28.412 -16.757202 -28.373718 -25.971985
28.455 28.432 -16.757202 -28.997803 -26.275635
28.467 28.453 -16.2323 -29.930115 -26.841736
28.486 28.473 -15.588379 -30.204773 -27.111816
28.506 28.493 -16.149902 -29.325867 -26.876831
28.526 28.513 -16.511536 -28.78418 -27.023315
28.546 28.533 -16.255188 -29.206848 -27.436829
28.566 28.553 -16.937256 -29.37622 -27.601624
28.588 28.573 -16.998291 -28.947449 -27.183533
28.606 28.594 -16.423035 -28.373718 -26.623535
28.625 28.614 -16.792297 -28.742981 -26.441956
28.647 28.634 -16.4505 -29.13208 -26.564026
28.666 28.654 -15.922546 -29.206848 -26.785278
28.686 28.674 -16.300964 -29.58374 -27.520752
28.709 28.694 -16.117859 -29.589844 -28.549194
28.730 28.714 -15.7547 -29.373169 -28.903198
28.748 28.735 -16.763306 -29.574585 -28.509521
28.767 28.755 -17.91687 -29.022217 -27.963257
28.788 28.775 -18.260193 -28.541565 -27.763367
28.808 28.795 -17.321777 -28.02124 -28.474426
28.833 28.815 -17.396545 -27.496338 -28.695679
28.849 28.835 -17.758179 -27.375793 -28.578186
28.867 28.855 -16.89148 -27.160645 -28.153992
28.890 28.876 -15.666199 -26.721191 -27.819824
28.907 28.896 -15.254211 -26.54419 -27.763367
28.926 28.916 -16.311646 -26.661682 -27.6474
28.955 28.936 -16.412354 -27.055359 -29.281616
28.967 28.956 -16.255188 -27.209473 -30.04303
28.987 28.976 -16.375732 -28.282166 -29.226685
29.008 28.996 -16.304016 -28.590393 -28.321838
29.036 29.017 -16.255188 -28.541565 -28.088379
29.047 29.037 -17.358398 -27.198792 -28.207397
29.072 29.057 -17.019653 -28.186035 -29.693604
29.087 29.077 -16.757202 -28.707886 -30.206299
29.119 29.097 -17.4057 -27.288818 -29.574585
29.130 29.117 -17.233276 -28.189087 -29.040527
29.147 29.137 -17.09137 -28.707886 -28.903198
29.167 29.158 -16.966248 -28.58429 -29.266357
29.189 29.178 -17.172241 -27.31018 -28.909302
29.213 29.198 -17.25769 -26.876831 -28.73993
29.226 29.218 -17.538452 -26.876831 -28.192139
29.246 29.238 -17.869568 -27.703857 -29.43573
29.268 29.258 -17.926025 -27.874756 -29.718018
29.288 29.278 -16.915894 -28.019714 -29.57611
29.317 29.299 -16.041565 -28.18451 -30.253601
29.326 29.319 -15.922546 -28.207397 -30.369568
29.354 29.339 -17.715454 -28.207397 -29.786682
29.364 29.359 -16.737366 -27.615356 -30.586243
29.383 29.379 -16.589355 -27.542114 -30.69458
29.404 29.399 -17.67273 -28.004456 -31.448364
29.424 29.419 -16.841125 -25.598145 -29.41742
29.444 29.440 -16.757202 -25.378418 -29.229736
29.463 29.460 -15.962219 -27.760315 -29.69513
29.487 29.480 -15.2908325 -26.301575 -29.408264
29.503 29.500 -15.254211 -26.211548 -29.39148
29.524 29.520 -16.23993 -25.556946 -29.711914
29.544 29.540 -15.768433 -27.653503 -29.5578
29.585 29.560 -15.757751 -27.708435 -29.553223
29.605 29.581 -16.58783 -27.194214 -29.393005
29.626 29.601 -16.423035 -25.712585 -29.554749
29.651 29.621 -16.4505 -25.72937 -29.559326
29.668 29.641 -17.279053 -26.16272 -29.751587
29.683 29.661 -17.758179 -25.045776 -30.532837
29.703 29.681 -17.666626 -25.097656 -30.462646
29.723 29.701 -16.244507 -25.843811 -29.472351
29.743 29.722 -16.088867 -25.378418 -30.532837
29.762 29.742 -16.13617 -25.456238 -30.48706
29.785 29.762 -16.589355 -26.112366 -30.13916
29.802 29.782 -16.589355 -25.212097 -31.021118
29.822 29.802 -16.773987 -25.35553 -30.841064
29.843 29.822 -17.855835 -26.356506 -29.743958
29.863 29.842 -16.255188 -26.211548 -31.021118
29.882 29.863 -16.43982 -26.133728 -30.995178
29.902 29.883 -17.39502 -25.682068 -31.069946
29.922 29.903 -17.25769 -25.546265 -31.99768
29.947 29.923 -17.349243 -25.335693 -31.84967
29.963 29.943 -17.697144 -24.629211 -31.123352
29.986 29.963 -17.425537 -25.712585 -30.85785
30.008 29.983 -17.062378 -25.64087 -31.069946
30.024 30.004 -15.9729 -25.234985 -32.1167
30.050 30.024 -16.757202 -24.713135 -33.139038
30.063 30.044 -16.757202 -24.63379 -32.904053
30.097 30.064 -16.877747 -24.578857 -32.043457
30.107 30.084 -17.25769 -25.212097 -31.672668
30.125 30.104 -16.716003 -25.30365 -31.318665
30.142 30.124 -15.115356 -25.221252 -30.505371
30.161 30.145 -14.753723 -24.380493 -30.85785
30.184 30.165 -15.028381 -24.380493 -31.48346
30.202 30.185 -15.904236 -24.234009 -33.065796
30.221 30.205 -16.423035 -23.71521 -32.8125
30.243 30.225 -16.313171 -23.8266 -32.485962
30.262 30.245 -16.537476 -24.047852 -32.162476
30.281 30.265 -17.425537 -24.047852 -32.8125
30.301 30.285 -16.880798 -23.626709 -32.633972
30.321 30.306 -16.52832 -23.124695 -32.559204
30.342 30.326 -17.591858 -23.54889 -32.97577
30.369 30.346 -17.456055 -23.139954 -32.84149
30.384 30.366 -16.86554 -23.20404 -32.266235
30.403 30.386 -16.255188 -24.214172 -31.672668
30.426 30.406 -16.255188 -23.797607 -31.944275
30.445 30.426 -15.966797 -23.649597 -32.4646
30.476 30.447 -15.588379 -24.214172 -32.64923
30.487 30.467 -15.364075 -23.841858 -32.86743
30.505 30.487 -16.137695 -23.532104 -32.406616
30.522 30.507 -17.425537 -23.71521 -31.5094
30.543 30.527 -16.851807 -23.3078 -32.707214
30.566 30.547 -16.339111 -22.311401 -33.232117
30.592 30.567 -16.423035 -21.717834 -32.487488
30.604 30.588 -15.914917 -22.05658 -32.981873
30.628 30.608 -16.183472 -21.961975 -33.546448
30.646 30.628 -16.923523 -21.551514 -33.62732
30.661 30.648 -16.282654 -22.558594 -33.89435
30.680 30.668 -15.306091 -22.937012 -32.97577
30.701 30.688 -14.920044 -22.550964 -31.99768
30.720 30.708 -14.730835 -22.929382 -31.99768
30.739 30.729 -14.877319 -22.927856 -32.470703
30.762 30.749 -15.086365 -22.717285 -32.8125
30.780 30.769 -14.9887085 -23.013306 -32.522583
30.800 30.789 -15.516663 -22.821045 -32.904053
30.820 30.809 -15.922546 -22.550964 -33.30078
30.840 30.829 -15.600586 -22.444153 -32.777405
30.862 30.849 -15.632629 -22.174072 -33.102417
30.880 30.870 -15.7547 -22.050476 -33.46405
30.900 30.890 -15.646362 -22.37854 -33.355713
30.925 30.910 -15.371704 -22.117615 -33.30078
30.940 30.930 -15.254211 -21.884155 -33.30078
30.964 30.950 -14.79187 -21.655273 -33.976746
30.984 30.970 -14.700317 -22.117615 -34.16748
31.001 30.990 -14.753723 -22.383118 -34.1156
31.024 31.011 -14.277649 -22.383118 -34.8114
31.040 31.031 -15.04364 -21.429443 -34.158325
31.073 31.051 -15.420532 -21.052551 -33.79059
31.082 31.071 -13.806152 -21.672058 -34.153748
31.103 31.091 -14.485168 -22.131348 -33.79669
31.126 31.111 -14.920044 -22.216797 -33.62732
31.156 31.131 -15.0390625 -21.147156 -33.743286
31.167 31.152 -15.086365 -20.970154 -33.54492
31.183 31.172 -15.086365 -21.052551 -33.46405
31.200 31.192 -14.552307 -21.586609 -34.509277
31.221 31.212 -14.286804 -22.117615 -34.1156
31.244 31.232 -14.251709 -22.216797 -33.95233
31.270 31.252 -15.46936 -20.736694 -34.61151
31.279 31.272 -15.06958 -20.251465 -34.631348
31.298 31.293 -14.920044 -20.220947 -34.60388
31.319 31.313 -14.776611 -22.377014 -34.181213
31.338 31.333 -15.762329 -20.851135 -34.536743
31.359 31.353 -15.922546 -20.553589 -34.60388
31.378 31.373 -15.325928 -21.446228 -34.31244
31.398 31.393 -15.254211 -21.551514 -33.70056
31.419 31.413 -15.254211 -21.551514 -33.62732
31.441 31.434 -14.175415 -19.862366 -33.776855
31.459 31.454 -14.237976 -22.314453 -35.131836
31.478 31.474 -14.251709 -22.550964 -35.255432
31.498 31.494 -14.251709 -21.282959 -34.013367
31.518 31.514 -14.096069 -21.063232 -36.875916
31.539 31.534 -14.085388 -21.052551 -37.04834
31.561 31.554 -13.922119 -20.237732 -35.287476
31.580 31.575 -13.269043 -21.192932 -36.84082
31.601 31.595 -13.250732 -21.218872 -36.88507
31.652 31.615 -14.419556 -20.051575 -36.38611
31.660 31.635 -14.419556 -19.721985 -35.4187
31.684 31.655 -14.424133 -19.726563 -35.43091
31.698 31.675 -14.549255 -19.876099 -35.906982
31.718 31.695 -13.583374 -19.555664 -35.906982
31.736 31.716 -13.604736 -19.577026 -35.865784
31.759 31.736 -13.887024 -19.98291 -35.162354
31.777 31.756 -13.583374 -20.88623 -34.27887
31.797 31.776 -13.661194 -20.689392 -34.38263
31.817 31.796 -14.289856 -18.788147 -35.481262
31.838 31.816 -13.082886 -19.387817 -36.07025
31.858 31.836 -13.043213 -19.587708 -35.990906
31.877 31.857 -12.62207 -20.925903 -35.542297
31.897 31.877 -11.747742 -20.054626 -36.39679
31.918 31.897 -12.104797 -19.818115 -36.512756
31.941 31.917 -13.546753 -18.876648 -36.94763
31.959 31.937 -12.414551 -19.721985 -36.39679
31.978 31.957 -12.533569 -19.900513 -36.569214
32.002 31.977 -12.770081 -20.407104 -37.005615
32.020 31.997 -11.413574 -19.055176 -35.4187
32.038 32.018 -11.935425 -19.299316 -35.588074
32.066 32.038 -13.595581 -19.972229 -36.198425
32.079 32.058 -12.414551 -19.055176 -36.07025
32.103 32.078 -12.792969 -19.206238 -36.36322
32.121 32.098 -13.983154 -19.552612 -37.20703
32.139 32.118 -13.583374 -18.888855 -36.558533
32.163 32.138 -13.226318 -19.067383 -36.906433
32.178 32.159 -12.2039795 -19.60144 -37.550354
32.200 32.179 -12.080383 -19.721985 -36.7218
32.219 32.199 -12.045288 -19.541931 -36.68518
32.246 32.219 -12.167358 -19.140625 -36.509705
32.256 32.239 -12.748718 -19.721985 -36.39679
32.275 32.259 -12.374878 -19.34967 -36.13434
32.299 32.279 -12.120056 -18.507385 -35.533142
32.319 32.300 -13.417053 -18.389893 -35.4187
32.335 32.320 -13.597107 -18.927002 -35.82611
32.357 32.340 -13.858032 -19.468689 -36.616516
32.375 32.360 -13.751221 -18.722534 -36.7218
32.396 32.380 -12.911987 -19.302368 -36.657715
32.415 32.400 -12.225342 -19.580078 -36.558533
32.435 32.420 -13.250732 -18.556213 -36.558533
32.456 32.441 -12.823486 -18.98346 -37.113953
32.475 32.461 -12.464905 -19.05365 -37.368774
32.497 32.481 -12.748718 -18.389893 -36.7218
32.516 32.501 -12.159729 -18.537903 -36.865234
32.544 32.521 -12.078857 -19.238281 -37.40692
32.558 32.541 -12.916565 -19.888306 -37.861633
32.584 32.561 -12.510681 -19.483948 -37.306213
32.595 32.582 -12.080383 -18.266296 -37.649536
32.616 32.602 -12.080383 -17.391968 -38.676453
32.635 32.622 -12.1658325 -17.475891 -38.757324
32.655 32.642 -12.852478 -17.988586 -38.586426
32.675 32.662 -13.417053 -18.389893 -38.35144
32.695 32.682 -12.70752 -18.566895 -38.17749
32.715 32.702 -13.233948 -17.752075 -38.282776
32.734 32.723 -14.251709 -16.893005 -38.513184
32.753 32.743 -13.288879 -17.277527 -38.13629
32.777 32.763 -12.393188 -17.558289 -37.861633
32.795 32.783 -12.24823 -17.558289 -37.861633
32.818 32.803 -12.347412 -17.068481 -38.342285
32.836 32.823 -11.529541 -17.805481 -38.005066
32.855 32.843 -10.91156 -18.556213 -37.53662
32.880 32.864 -10.91156 -17.933655 -36.7218
32.895 32.884 -10.708618 -17.965698 -36.63025
32.924 32.904 -10.578918 -18.223572 -36.88507
32.936 32.924 -11.228943 -18.223572 -37.51831
32.960 32.944 -10.572815 -18.112183 -37.75177
32.976 32.964 -10.076904 -18.057251 -37.69989
32.997 32.984 -10.754395 -17.384338 -38.139343
33.014 33.005 -11.306763 -17.285156 -38.35144
33.033 33.025 -11.413574 -17.391968 -38.35144
33.053 33.045 -10.818481 -18.223572 -37.768555
33.075 33.065 -10.578918 -17.848206 -38.92212
33.096 33.085 -10.578918 -17.558289 -39.491272
33.113 33.105 -11.447144 -17.681885 -38.40332
33.134 33.125 -11.131287 -18.093872 -38.864136
33.156 33.146 -10.91156 -18.223572 -39.164734
33.173 33.166 -10.282898 -18.600464 -38.059998
33.198 33.186 -11.480713 -17.326355 -37.82196
33.215 33.206 -11.9140625 -16.893005 -37.861633
33.235 33.226 -12.449646 -16.358948 -38.64441
33.260 33.246 -11.013794 -16.828918 -38.249207
33.274 33.266 -10.411072 -17.059326 -38.024902
33.307 33.287 -11.92627 -18.293762 -38.42621
33.317 33.307 -11.703491 -17.741394 -38.778687
33.336 33.327 -11.579895 -17.558289 -38.83972
33.352 33.347 -11.726379 -17.703247 -38.417053
33.374 33.367 -9.757996 -17.442322 -37.79602
33.392 33.387 -9.408569 -17.391968 -37.69989
33.412 33.407 -9.70459 -18.273926 -37.69989
33.433 33.428 -10.624695 -17.512512 -38.557434
33.452 33.448 -10.745239 -17.391968 -38.676453
33.473 33.468 -10.136414 -16.786194 -38.676453
33.493 33.488 -11.442566 -17.17987 -38.526917
33.512 33.508 -11.579895 -17.225647 -38.513184
33.532 33.528 -11.579895 -17.225647 -39.746094
33.552 33.548 -11.894226 -16.288757 -39.204407
33.572 33.569 -11.9140625 -16.226196 -39.164734
33.595 33.589 -12.567139 -15.577698 -39.7995
33.614 33.609 -11.613464 -16.85028 -38.871765
33.634 33.629 -11.579895 -16.893005 -38.83972
33.675 33.649 -12.408447 -17.059326 -39.00299
33.676 33.669 -10.928345 -16.896057 -39.161682
33.713 33.689 -10.91156 -16.893005 -39.14795
33.733 33.710 -10.882568 -16.88385 -38.513184
33.758 33.730 -9.9105835 -16.558838 -38.513184
33.774 33.750 -9.928894 -16.595459 -38.52997
33.795 33.770 -10.13031 -17.19513 -38.890076
33.814 33.790 -8.407593 -16.726685 -39.65454
33.836 33.810 -8.357239 -16.67633 -39.65454
33.858 33.830 -7.862854 -16.152954 -39.683533
33.879 33.851 -9.075928 -17.059326 -39.979553
33.893 33.871 -9.268188 -17.098999 -39.86664
33.918 33.891 -10.644531 -17.454529 -39.0213
33.933 33.911 -9.9105835 -17.89093 -39.164734
33.956 33.931 -9.692383 -17.964172 -39.282227
33.975 33.951 -8.740234 -18.21289 -40.003967
33.995 33.971 -10.578918 -17.225647 -40.142822
34.018 33.992 -10.519409 -17.286682 -40.377808
34.031 34.012 -10.005188 -17.318726 -41.00952
34.051 34.032 -9.075928 -16.392517 -39.328003
34.071 34.052 -9.385681 -16.427612 -39.361572
34.091 34.072 -10.649109 -16.908264 -39.28528
34.112 34.092 -10.91156 -18.223572 -38.513184
34.131 34.112 -10.476685 -17.655945 -38.61084
34.151 34.133 -8.782959 -16.072083 -39.118958
34.171 34.153 -8.908081 -18.223572 -39.491272
34.190 34.173 -9.042358 -18.00232 -39.533997
34.213 34.193 -9.283447 -17.434692 -39.448547
34.230 34.213 -8.908081 -17.558289 -38.83972
34.251 34.233 -9.106445 -17.263794 -38.934326
34.278 34.253 -9.877014 -16.459656 -39.75067
34.291 34.273 -10.578918 -16.226196 -41.119385
34.319 34.294 -10.101318 -16.418457 -41.119385
34.332 34.314 -8.87146 -17.004395 -41.15448
34.353 34.334 -8.74176 -17.391968 -41.282654
34.376 34.354 -9.159851 -16.975403 -40.75775
34.396 34.374 -10.032654 -16.58783 -40.05127
34.410 34.394 -10.244751 -17.225647 -40.467834
34.429 34.414 -10.700989 -16.90216 -39.89563
34.450 34.435 -10.896301 -16.392517 -39.38141
34.470 34.455 -10.076904 -16.392517 -39.979553
34.489 34.475 -9.275818 -17.481995 -40.335083
34.510 34.495 -8.590698 -17.984009 -40.179443
34.529 34.515 -9.075928 -16.726685 -39.328003
34.549 34.535 -9.150696 -16.355896 -38.964844
34.571 34.555 -9.088135 -16.203308 -38.81378
34.590 34.576 -8.908081 -16.558838 -39.164734
34.609 34.596 -9.465027 -16.481018 -39.241028
34.630 34.616 -10.237122 -17.346191 -39.483643
34.651 34.636 -10.411072 -18.389893 -39.65454
34.670 34.656 -9.7213745 -18.218994 -39.822388
34.690 34.676 -10.284424 -17.713928 -40.48462
34.710 34.696 -11.413574 -17.391968 -40.95764
34.730 34.717 -11.860657 -17.303467 -40.52124
34.752 34.737 -10.733032 -16.960144 -40.229797
34.777 34.757 -9.408569 -16.726685 -40.30609
34.791 34.777 -9.408569 -17.49115 -40.30609
34.815 34.797 -9.785461 -17.308044 -40.48767
34.830 34.817 -10.076904 -16.726685 -40.631104
34.852 34.837 -9.87854 -17.718506 -40.048218
34.882 34.858 -9.439087 -17.478943 -40.148926
34.892 34.878 -9.242249 -16.893005 -40.467834
34.912 34.898 -8.616638 -17.10205 -40.467834
34.934 34.918 -9.388733 -17.953491 -40.77301
34.955 34.938 -10.076904 -18.389893 -40.95764
34.970 34.958 -10.076904 -18.617249 -40.290833
34.997 34.978 -9.52301 -17.95044 -40.953064
35.014 34.999 -9.242249 -17.558289 -41.445923
35.032 35.019 -8.210754 -17.445374 -40.438843
35.052 35.039 -8.769226 -17.73529 -40.31372
35.071 35.059 -9.242249 -17.89093 -40.467834
35.102 35.079 -9.483337 -17.172241 -39.526367
35.108 35.099 -10.293579 -17.36908 -40.32898
35.128 35.119 -10.578918 -17.558289 -40.794373
35.149 35.140 -9.576416 -16.809082 -40.548706
35.169 35.160 -8.7677 -17.271423 -39.308167
35.189 35.180 -8.573914 -17.558289 -38.83972
35.207 35.200 -8.573914 -17.558289 -39.85443
35.227 35.220 -9.739685 -17.172241 -40.77301
35.248 35.240 -10.076904 -17.059326 -40.95764
35.269 35.260 -10.198975 -16.217041 -39.187622
35.289 35.281 -9.207153 -17.185974 -39.523315
35.307 35.301 -8.908081 -17.558289 -39.816284
35.327 35.321 -8.770752 -16.31012 -39.952087
35.349 35.341 -8.74176 -16.059875 -40.519714
35.372 35.361 -8.74176 -16.059875 -40.631104
35.390 35.381 -8.181763 -16.339111 -38.446045
35.411 35.401 -8.503723 -16.25061 -40.11841
35.430 35.422 -8.573914 -16.226196 -40.467834
35.449 35.442 -8.425903 -16.673279 -40.031433
35.472 35.462 -9.002686 -17.022705 -39.979553
35.490 35.482 -9.075928 -17.059326 -39.979553
35.508 35.502 -8.612061 -15.673828 -41.033936
35.530 35.522 -9.338379 -15.409851 -39.48059
35.549 35.542 -9.408569 -15.394592 -39.328003
35.567 35.563 -6.4575195 -15.068054 -39.967346
35.587 35.583 -9.577942 -15.3793335 -41.21704
35.606 35.603 -9.742737 -15.394592 -41.282654
35.627 35.623 -6.9396973 -15.887451 -40.79895
35.647 35.643 -8.851624 -14.924622 -39.21051
35.687 35.663 -8.906555 -14.89563 -39.16626
35.707 35.683 -8.558655 -14.86969 -39.491272
35.726 35.704 -7.572937 -13.230896 -39.491272
35.746 35.724 -7.533264 -13.284302 -39.541626
35.767 35.744 -6.427002 -14.782715 -40.934753
35.787 35.764 -6.904602 -15.893555 -40.467834
35.807 35.784 -6.904602 -15.808105 -40.446472
35.829 35.804 -7.0266724 -14.466858 -40.237427
35.852 35.824 -8.573914 -13.230896 -41.445923
35.867 35.845 -8.526611 -13.215637 -41.368103
35.894 35.865 -7.9208374 -13.082886 -40.67993
35.907 35.885 -6.5704346 -13.230896 -41.119385
35.926 35.905 -6.678772 -13.381958 -41.181946
35.948 35.925 -7.7026367 -14.263916 -41.897583
35.967 35.945 -9.242249 -13.563538 -43.400574
35.993 35.965 -8.934021 -13.461304 -43.199158
36.007 35.986 -7.6950073 -13.352966 -42.175293
36.027 36.006 -10.076904 -15.727234 -42.585754
36.053 36.026 -9.69696 -15.350342 -42.349243
36.067 36.046 -8.335876 -13.929749 -41.290283
36.088 36.066 -8.74176 -14.064026 -40.631104
36.112 36.086 -8.56781 -13.751221 -40.664673
36.129 36.106 -7.473755 -12.710571 -41.004944
36.156 36.127 -5.9020996 -13.230896 -41.770935
36.168 36.147 -6.14624 -13.15155 -41.848755
36.193 36.167 -7.1151733 -13.191223 -42.137146
36.207 36.187 -7.739258 -14.064026 -42.260742
36.229 36.207 -8.117676 -13.771057 -42.62848
36.245 36.227 -8.966064 -12.968445 -43.59131
36.264 36.247 -7.9055786 -13.230896 -43.07556
36.284 36.268 -7.8552246 -13.790894 -43.22357
36.305 36.288 -8.256531 -15.061951 -43.663025
36.325 36.308 -9.408569 -15.061951 -43.888855
36.344 36.328 -8.457947 -14.559937 -43.72406
36.364 36.348 -7.081604 -13.056946 -43.78662
36.385 36.368 -8.073425 -12.06665 -44.540405
36.404 36.388 -7.7713013 -12.974548 -43.533325
36.424 36.409 -7.48291 -14.320374 -42.366028
36.443 36.429 -7.9055786 -13.897705 -43.400574
36.464 36.449 -8.03833 -13.372803 -43.014526
36.488 36.469 -7.208252 -12.908936 -42.489624
36.505 36.489 -5.735779 -13.397217 -42.585754
36.525 36.509 -6.373596 -13.891602 -42.51709
36.547 36.529 -6.744385 -14.070129 -43.182373
36.565 36.549 -6.0699463 -13.397217 -44.215393
36.589 36.570 -6.4575195 -13.630676 -43.685913
36.606 36.590 -6.982422 -14.129639 -42.54608
36.632 36.610 -7.070923 -14.3966675 -41.934204
36.646 36.630 -6.427002 -14.23645 -42.877197
36.666 36.650 -5.493164 -14.306641 -43.17932
36.690 36.670 -5.2337646 -14.562988 -42.42401
36.714 36.690 -5.1483154 -14.129639 -42.678833
36.728 36.711 -4.9835205 -13.987732 -42.99469
36.747 36.731 -4.901123 -14.230347 -43.07556
36.764 36.751 -5.264282 -13.868713 -43.07556
36.784 36.771 -5.847168 -13.471985 -43.164063
36.806 36.791 -6.0699463 -13.397217 -43.237305
36.830 36.811 -4.7348022 -13.589478 -43.051147
36.845 36.831 -4.400635 -13.63678 -44.12384
36.869 36.852 -4.901123 -13.563538 -45.030212
36.883 36.872 -5.1071167 -14.183044 -44.625854
36.909 36.892 -4.928589 -13.648987 -43.48297
36.929 36.912 -4.7332764 -13.064575 -42.912292
36.944 36.932 -4.7332764 -13.2751465 -42.704773
36.969 36.952 -3.7902832 -14.338684 -42.892456
36.984 36.972 -3.2302856 -14.89563 -43.07556
37.007 36.993 -2.8945923 -14.561462 -43.621826
37.034 37.013 -2.9510498 -15.055847 -43.244934
37.044 37.033 -3.0639648 -15.394592 -42.912292
37.068 37.053 -2.947998 -14.126587 -42.79785
37.082 37.073 -3.0151367 -14.389038 -42.633057
37.104 37.093 -3.0639648 -14.729309 -42.585754
37.123 37.113 -2.0996094 -13.2873535 -43.525696
37.142 37.134 -2.3284912 -14.28833 -44.239807
37.162 37.154 -2.5619507 -14.89563 -44.378662
37.187 37.174 -2.2094727 -14.779663 -44.262695
37.203 37.194 -1.4526367 -13.635254 -43.858337
37.222 37.214 -1.2268066 -13.230896 -43.72711
37.241 37.234 -2.2705078 -14.532471 -44.744873
37.263 37.254 -2.5619507 -15.155029 -44.270325
37.284 37.275 -2.5619507 -15.2282715 -44.052124
37.304 37.295 -1.6433716 -14.051819 -42.89856
37.323 37.315 -1.1245728 -13.999939 -43.371582
37.343 37.335 -1.05896 -14.064026 -43.563843
37.364 37.355 -0.78125 -14.064026 -43.563843
37.384 37.375 -1.6921997 -13.652039 -42.889404
37.406 37.395 -1.8951416 -13.563538 -42.749023
37.427 37.416 -0.73547363 -14.431763 -42.466736
37.443 37.436 0.30517578 -15.710449 -43.54706
37.466 37.456 0.44403076 -15.893555 -43.72711
37.483 37.476 0.89263916 -14.250183 -43.286133
37.505 37.496 0.94451904 -14.064026 -43.237305
37.525 37.516 0.94451904 -14.064026 -43.237305
37.541 37.536 1.8737793 -14.373779 -42.025757
37.561 37.557 1.3305664 -14.091492 -44.036865
37.584 37.577 1.2786865 -14.064026 -44.215393
37.601 37.597 1.4373779 -12.945557 -44.371033
37.621 37.617 0.015258789 -14.323425 -43.603516
37.641 37.637 -0.0579834 -14.3966675 -43.563843
37.662 37.657 1.0910034 -15.542603 -43.4021
37.683 37.677 2.2537231 -14.74762 -43.878174
37.720 37.698 2.2827148 -14.726257 -43.876648
37.744 37.718 2.7618408 -14.24408 -42.42096
37.745 37.738 1.612854 -15.061951 -42.260742
37.796 37.758 1.5838623 -15.034485 -42.276
37.809 37.778 0.82092285 -14.1571045 -42.791748
37.822 37.798 1.7791748 -12.565613 -43.72711
37.845 37.818 1.8112183 -12.533569 -43.71643
37.865 37.839 2.3101807 -12.162781 -43.59436
37.884 37.859 2.7816772 -13.563538 -44.052124
37.913 37.879 2.684021 -13.468933 -43.988037
37.922 37.899 1.6921997 -12.548828 -43.518066
37.940 37.919 0.94451904 -12.399292 -44.540405
37.959 37.939 0.98114014 -12.512207 -44.685364
37.982 37.959 1.0070801 -13.397217 -45.799255
38.000 37.980 -0.72631836 -13.397217 -45.518494
38.019 38.000 -0.4638672 -13.241577 -45.210266
38.039 38.020 0.68969727 -12.484741 -43.811035
38.059 38.040 -0.5584717 -12.898254 -45.030212
38.079 38.060 -0.21972656 -12.62207 -44.818115
38.100 38.080 1.2130737 -11.857605 -44.270325
38.119 38.100 0.94451904 -13.731384 -45.843506
38.142 38.121 0.7659912 -13.412476 -45.529175
38.161 38.141 0.27770996 -12.333679 -44.01703
38.180 38.161 0.94451904 -12.731934 -42.585754
38.200 38.181 0.9033203 -12.692261 -42.944336
38.221 38.201 0.8605957 -12.481689 -44.13452
38.242 38.221 1.1108398 -12.232971 -44.378662
38.262 38.241 1.2863159 -12.127686 -44.54956
38.280 38.262 1.7593384 -12.197876 -45.37201
38.305 38.282 1.2786865 -13.397217 -45.843506
38.320 38.302 1.4801025 -12.994385 -45.448303
38.345 38.322 2.0370483 -12.342834 -44.540405
38.362 38.342 2.279663 -13.064575 -44.540405
38.381 38.362 2.445984 -13.230896 -44.70215
38.409 38.382 2.836609 -13.397217 -44.755554
38.420 38.403 2.947998 -13.064575 -44.215393
38.439 38.423 2.5222778 -13.12561 -44.511414
38.462 38.443 2.1438599 -13.95874 -44.911194
38.481 38.463 2.7816772 -15.2282715 -44.703674
38.509 38.483 2.848816 -14.479065 -44.903564
38.518 38.503 3.0853271 -12.986755 -45.05768
38.538 38.523 3.2821655 -12.399292 -44.866943
38.562 38.544 3.2104492 -12.611389 -44.52057
38.578 38.564 3.2562256 -12.898254 -44.885254
38.598 38.584 3.4484863 -12.898254 -46.006775
38.618 38.604 3.9962769 -13.601685 -45.776367
38.640 38.624 4.5425415 -14.472961 -45.150757
38.661 38.644 4.450989 -14.562988 -44.703674
38.678 38.664 4.208374 -13.999939 -44.467163
38.699 38.685 3.617859 -12.902832 -43.728638
38.717 38.705 3.2821655 -12.399292 -43.237305
38.737 38.725 4.1397095 -12.228394 -44.241333
38.759 38.745 4.43573 -12.75177 -45.359802
38.780 38.765 3.9505005 -13.397217 -45.518494
38.797 38.785 3.7628174 -13.769531 -45.698547
38.823 38.805 4.170227 -13.696289 -45.843506
38.839 38.825 4.6188354 -13.397217 -45.843506
38.867 38.846 5.2841187 -13.113403 -45.19348
38.879 38.866 5.215454 -13.468933 -45.26062
38.898 38.886 4.7851563 -13.897705 -45.681763
38.919 38.906 5.706787 -13.591003 -44.981384
38.941 38.926 5.583191 -13.298035 -45.422363
38.959 38.946 5.1193237 -13.230896 -46.006775
38.983 38.966 5.329895 -14.073181 -45.388794
38.999 38.987 4.91333 -14.241028 -44.9234
39.019 39.007 4.6188354 -14.064026 -44.866943
39.042 39.027 5.944824 -12.522888 -44.003296
39.068 39.047 5.2963257 -13.7146 -44.639587
39.077 39.067 4.6188354 -14.729309 -45.191956
39.096 39.087 5.793762 -14.027405 -46.10901
39.118 39.107 5.241394 -13.6154175 -45.928955
39.137 39.128 4.7851563 -13.563538 -45.681763
39.157 39.148 6.9625854 -13.806152 -44.97223
39.177 39.168 5.743408 -14.2578125 -44.821167
39.196 39.188 4.951477 -14.3966675 -44.866943
39.217 39.208 5.453491 -14.898682 -44.866943
39.236 39.228 6.744385 -14.9383545 -46.45233
39.256 39.248 7.1228027 -14.89563 -46.984863
39.276 39.269 7.775879 -13.46283 -45.581055
39.298 39.289 7.4783325 -13.304138 -45.892334
39.317 39.309 7.2906494 -13.397217 -46.170044
39.337 39.329 7.019043 -13.938904 -45.90454
39.360 39.349 6.4178467 -13.796997 -46.105957
39.378 39.369 6.288147 -13.731384 -46.170044
39.397 39.389 6.4315796 -13.299561 -46.873474
39.427 39.410 7.8445435 -14.341736 -46.170044
39.451 39.430 8.125305 -14.562988 -46.006775
39.460 39.450 6.0913086 -14.274597 -46.006775
39.476 39.470 7.810974 -13.365173 -45.159912
39.495 39.490 8.125305 -13.230896 -45.030212
39.515 39.510 8.125305 -15.023804 -44.444275
39.539 39.530 8.125305 -15.525818 -44.960022
39.555 39.551 8.125305 -15.560913 -45.030212
39.575 39.571 9.835815 -13.858032 -43.66455
39.595 39.591 10.577393 -15.267944 -45.066833
39.615 39.611 10.629272 -15.394592 -45.191956
39.638 39.631 9.182739 -13.314819 -42.529297
39.656 39.651 8.171082 -12.915039 -45.217896
39.675 39.671 8.125305 -12.898254 -45.355225
39.695 39.692 9.776306 -13.557434 -44.065857
39.716 39.712 10.28595 -14.0563965 -45.491028
39.755 39.732 10.282898 -14.074707 -45.510864
39.777 39.752 9.294128 -15.0390625 -44.883728
39.798 39.772 9.294128 -13.731384 -45.843506
39.817 39.792 9.2803955 -13.75885 -45.803833
39.840 39.812 8.935547 -14.421082 -44.92035
39.855 39.833 8.459473 -14.89563 -46.006775
39.877 39.853 8.392334 -14.830017 -45.983887
39.896 39.873 7.621765 -13.911438 -45.568848
39.922 39.893 9.628296 -14.064026 -44.215393
39.936 39.913 9.611511 -14.112854 -44.325256
39.966 39.933 9.513855 -14.546204 -45.30182
39.975 39.953 9.962463 -14.3966675 -44.866943
39.996 39.974 9.9823 -14.546204 -44.88678
40.018 39.994 9.992981 -15.426636 -45.117188
40.043 40.014 9.126282 -14.562988 -45.681763
40.055 40.034 9.291077 -14.562988 -45.52002
40.077 40.054 10.192871 -14.369202 -44.703674
40.098 40.074 10.462952 -13.563538 -44.703674
40.117 40.094 10.621643 -13.723755 -44.796753
40.134 40.115 11.36322 -14.660645 -44.99817
40.154 40.135 11.631775 -15.727234 -44.215393
40.174 40.155 11.462402 -15.69519 -44.31305
40.195 40.175 10.491943 -15.409851 -44.628906
40.214 40.195 9.460449 -14.89563 -44.378662
40.233 40.215 9.712219 -14.559937 -44.54193
40.255 40.235 10.462952 -13.806152 -45.187378
40.273 40.256 10.462952 -14.562988 -45.681763
40.295 40.276 10.975647 -14.610291 -45.817566
40.313 40.296 11.868286 -14.872742 -45.562744
40.337 40.316 10.797119 -15.2282715 -44.052124
40.361 40.336 10.84137 -15.184021 -44.363403
40.374 40.356 10.536194 -15.061951 -45.0531
40.397 40.376 8.959961 -15.061951 -44.540405
40.415 40.397 9.353638 -14.894104 -44.9234
40.446 40.417 10.523987 -14.508057 -45.51544
40.455 40.437 11.297607 -14.3966675 -45.191956
40.474 40.457 11.360168 -14.584351 -45.13092
40.498 40.477 11.030579 -14.216614 -45.08972
40.517 40.497 10.295105 -13.064575 -45.191956
40.537 40.517 11.065674 -13.415527 -44.71283
40.552 40.538 11.793518 -14.100647 -44.77539
40.572 40.558 11.297607 -14.3966675 -45.843506
40.593 40.578 11.369324 -14.753723 -45.355225
40.613 40.598 10.435486 -15.52124 -45.133972
40.632 40.618 9.126282 -15.893555 -45.681763
40.662 40.638 10.044861 -15.742493 -45.23163
40.674 40.658 11.897278 -15.560913 -44.25354
40.692 40.679 12.800598 -15.560913 -43.72711
40.712 40.699 12.800598 -15.560913 -43.72711
40.733 40.719 12.046814 -15.144348 -43.971252
40.752 40.739 11.297607 -14.729309 -44.215393
40.772 40.759 12.59613 -14.9887085 -43.286133
40.792 40.779 12.763977 -15.917969 -42.929077
40.820 40.799 11.798096 -16.558838 -43.400574
40.833 40.820 12.17041 -14.889526 -43.400574
40.854 40.840 13.470459 -14.929199 -44.20166
40.873 40.860 14.303589 -16.059875 -44.866943
40.893 40.880 13.047791 -15.196228 -43.83087
40.916 40.900 12.327576 -15.345764 -44.415283
40.946 40.920 12.466431 -15.893555 -45.355225
40.953 40.940 12.261963 -15.287781 -44.958496
40.973 40.961 11.834717 -14.404297 -44.02771
40.991 40.981 11.631775 -14.064026 -43.563843
41.010 41.001 12.184143 -14.395142 -44.74945
41.032 41.021 12.249756 -14.562988 -44.721985
41.051 41.041 12.132263 -14.562988 -44.378662
41.071 41.061 11.907959 -15.675354 -43.07251
41.091 41.081 12.132263 -15.45105 -43.61725
41.111 41.102 12.30011 -15.061951 -44.215393
41.131 41.122 12.063599 -14.593506 -43.525696
41.162 41.142 12.197876 -14.16626 -43.463135
41.174 41.162 12.30011 -14.064026 -43.563843
41.202 41.182 12.176514 -14.671326 -44.15741
41.213 41.202 12.504578 -14.77356 -43.77289
41.231 41.222 12.634277 -14.729309 -43.563843
41.250 41.243 12.634277 -15.486145 -44.303894
41.272 41.263 12.886047 -15.47699 -45.277405
41.292 41.283 12.968445 -15.394592 -45.518494
41.313 41.303 12.3703 -15.0390625 -45.63446
41.330 41.323 12.638855 -14.390564 -44.93866
41.350 41.343 12.800598 -14.230347 -44.703674
41.372 41.363 13.07373 -14.775085 -44.970703
41.398 41.383 14.21814 -14.085388 -43.971252
41.409 41.404 14.46991 -13.897705 -43.72711
41.433 41.424 14.46991 -13.897705 -42.62085
41.451 41.444 13.343811 -16.140747 -43.24646
41.471 41.464 13.134766 -16.558838 -43.400574
41.497 41.484 11.8133545 -16.41388 -43.544006
41.513 41.504 11.776733 -15.957642 -44.55719
41.530 41.524 11.798096 -15.893555 -44.703674
41.550 41.545 12.4053955 -15.289307 -44.703674
41.570 41.565 13.067627 -15.2282715 -43.23578
41.591 41.585 13.134766 -15.2282715 -43.07556
41.612 41.605 13.9175415 -16.009521 -44.75708
41.631 41.625 12.727356 -16.680908 -44.866943
41.650 41.645 12.634277 -16.726685 -44.866943
41.679 41.665 13.117981 -15.9210205 -43.762207
41.692 41.686 11.849976 -15.255737 -44.03839
41.714 41.706 11.798096 -15.2282715 -44.052124
41.732 41.726 11.465454 -15.2282715 -45.67871
41.750 41.746 12.124634 -15.887451 -44.71283
41.790 41.766 12.133789 -15.887451 -44.7052
41.811 41.786 12.327576 -15.405273 -44.83795
41.835 41.806 13.301086 -15.727234 -43.888855
41.850 41.827 13.293457 -15.690613 -43.940735
41.870 41.847 13.090515 -15.010071 -45.021057
41.890 41.867 12.30011 -17.059326 -44.866943
41.910 41.887 12.245178 -16.925049 -44.839478
41.932 41.907 11.689758 -15.454102 -44.56787
41.950 41.927 12.30011 -16.059875 -44.866943
41.978 41.947 12.3550415 -16.116333 -44.883728
41.991 41.968 12.762451 -16.410828 -44.99359
42.009 41.988 12.466431 -15.2282715 -44.703674
42.030 42.008 12.466431 -15.275574 -44.563293
42.050 42.028 12.638855 -15.487671 -43.556213
42.069 42.048 13.635254 -15.061951 -42.585754
42.091 42.068 13.500977 -14.929199 -42.781067
42.113 42.088 12.968445 -14.51416 -43.6203
42.130 42.109 12.968445 -15.061951 -43.888855
42.152 42.129 12.870789 -14.901733 -43.919373
42.173 42.149 12.638855 -14.472961 -44.01703
42.192 42.169 13.301086 -15.394592 -43.888855
42.209 42.189 13.301086 -15.782166 -44.114685
42.229 42.209 13.259888 -16.217041 -44.747925
42.253 42.229 13.134766 -13.563538 -44.378662
42.277 42.250 13.093567 -13.847351 -44.41681
42.298 42.270 12.797546 -14.561462 -44.17572
42.311 42.290 12.132263 -13.897705 -42.749023
42.331 42.310 12.768555 -14.044189 -42.89093
42.350 42.330 14.402771 -14.299011 -42.94586
42.377 42.350 14.637756 -14.064026 -42.260742
42.390 42.370 14.637756 -14.434814 -42.622375
42.410 42.391 14.472961 -15.235901 -43.51349
42.433 42.411 14.137268 -14.230347 -42.749023
42.451 42.431 14.433289 -13.935852 -42.459106
42.468 42.451 14.971924 -13.15918 -42.05017
42.487 42.471 14.971924 -12.731934 -42.260742
42.506 42.491 15.229797 -13.117981 -42.260742
42.528 42.511 15.058899 -13.796997 -41.944885
42.547 42.532 14.137268 -13.897705 -41.445923
42.566 42.552 14.344788 -13.9678955 -41.91742
42.588 42.572 14.985657 -14.550781 -42.245483
42.607 42.592 15.472412 -15.2282715 -41.770935
42.627 42.612 15.394592 -14.99939 -42.29431
42.649 42.632 15.072632 -14.190674 -42.233276
42.672 42.652 14.804077 -13.563538 -41.445923
42.688 42.673 15.913391 -14.196777 -41.600037
42.709 42.693 16.744995 -14.024353 -41.84723
42.727 42.713 16.307068 -13.064575 -41.934204
42.750 42.733 15.615845 -13.41095 -41.76483
42.769 42.753 16.15448 -14.0686035 -41.77246
42.787 42.773 17.30957 -14.3966675 -41.934204
42.808 42.793 17.30957 -14.575195 -42.282104
42.829 42.814 16.48407 -14.456177 -42.3172
42.859 42.834 15.80658 -14.230347 -42.097473
42.871 42.854 15.80658 -14.419556 -42.097473
42.888 42.874 16.37268 -15.129089 -42.64984
42.905 42.894 16.809082 -15.560913 -43.07556
42.925 42.914 15.890503 -16.47644 -42.17987
42.946 42.934 15.405273 -16.357422 -42.099
42.966 42.955 15.472412 -15.893555 -42.42401
42.985 42.975 16.204834 -15.99884 -41.50238
43.005 42.995 16.744995 -16.165161 -41.262817
43.025 43.015 16.809082 -16.226196 -41.445923
43.046 43.035 16.809082 -16.448975 -41.445923
43.072 43.055 17.13562 -16.015625 -40.911865
43.090 43.075 17.30957 -15.727234 -40.631104
43.105 43.096 18.807983 -16.30249 -41.192627
43.124 43.116 18.769836 -16.796875 -41.67633
43.148 43.136 18.478394 -16.893005 -41.770935
43.164 43.156 18.719482 -16.651917 -41.29944
43.184 43.176 18.812561 -17.277527 -40.885925
43.204 43.196 18.812561 -17.558289 -40.794373
43.226 43.216 18.930054 -16.499329 -40.908813
43.245 43.237 18.733215 -16.792297 -41.433716
43.263 43.257 18.644714 -17.059326 -41.60919
43.283 43.277 18.252563 -16.668701 -41.481018
43.313 43.297 16.851807 -17.590332 -41.192627
43.333 43.317 16.474915 -17.89093 -41.119385
43.356 43.337 17.785645 -18.675232 -41.630554
43.364 43.357 18.545532 -18.22052 -41.116333
43.384 43.378 18.644714 -18.057251 -40.95764
43.403 43.398 18.223572 -18.476868 -39.997864
43.423 43.418 17.58728 -19.110107 -40.08789
43.448 43.438 17.475891 -19.221497 -40.142822
43.463 43.458 18.782043 -18.209839 -39.151
43.484 43.478 19.844055 -17.770386 -37.876892
43.504 43.498 19.981384 -17.72461 -37.69989
43.524 43.519 20.581055 -18.621826 -38.87024
43.544 43.539 19.454956 -18.426514 -40.457153
43.563 43.559 19.31305 -18.389893 -40.631104
43.583 43.579 20.709229 -18.545532 -40.478516
43.604 43.599 19.290161 -19.470215 -41.65802
43.623 43.619 19.146729 -19.555664 -41.770935
43.643 43.639 18.824768 -21.472168 -41.45813
43.665 43.659 19.767761 -20.918274 -41.445923
43.685 43.680 19.815063 -20.88623 -41.445923
43.704 43.700 18.826294 -22.529602 -41.445923
43.725 43.720 18.647766 -21.73462 -40.00702
43.764 43.740 18.649292 -21.723938 -39.974976
43.786 43.760 19.152832 -22.224426 -39.50348
43.804 43.780 19.480896 -22.550964 -40.142822
43.824 43.800 19.467163 -22.488403 -40.104675
43.847 43.821 19.11316 -20.903015 -39.212036
43.872 43.841 18.478394 -21.218872 -40.142822
43.885 43.861 18.59436 -21.289063 -40.05127
43.902 43.881 20.220947 -22.242737 -38.934326
43.922 43.901 21.150208 -22.550964 -40.142822
43.943 43.921 21.150208 -22.619629 -40.142822
43.962 43.941 21.058655 -23.234558 -40.196228
43.983 43.962 20.315552 -23.382568 -40.631104
44.002 43.982 20.220947 -23.214722 -40.538025
44.022 44.002 19.595337 -22.091675 -39.837646
44.043 44.022 20.315552 -23.382568 -39.979553
44.062 44.042 20.394897 -23.410034 -39.691162
44.082 44.062 20.75653 -23.606873 -38.18817
44.103 44.082 20.481873 -23.88153 -38.18817
44.123 44.103 20.44983 -23.786926 -38.156128
44.148 44.123 20.381165 -23.382568 -37.83264
44.164 44.143 20.64972 -23.382568 -37.04834
44.189 44.163 20.861816 -23.382568 -37.04834
44.205 44.183 21.946716 -23.547363 -36.82251
44.239 44.203 23.153687 -24.214172 -35.906982
44.243 44.223 22.98584 -24.298096 -35.743713
44.266 44.244 22.27478 -24.758911 -35.70862
44.283 44.264 21.650696 -25.378418 -37.04834
44.302 44.284 21.966553 -25.344849 -36.875916
44.322 44.304 22.816467 -25.453186 -36.091614
44.342 44.324 21.984863 -26.045227 -35.74524
44.361 44.344 22.245789 -25.680542 -35.69336
44.385 44.364 23.05603 -25.682068 -36.088562
44.401 44.385 23.6557 -27.708435 -37.373352
44.420 44.405 23.770142 -27.48108 -37.373352
44.442 44.425 23.58551 -27.330017 -37.428284
44.461 44.445 22.819519 -27.874756 -37.53662
44.480 44.465 22.819519 -27.874756 -37.416077
44.502 44.485 22.505188 -27.186584 -37.02545
44.528 44.505 21.984863 -26.045227 -36.7218
44.543 44.526 22.123718 -25.765991 -36.31134
44.564 44.546 22.531128 -26.301575 -35.39734
44.583 44.566 22.819519 -27.542114 -34.93042
44.602 44.586 23.976135 -27.542114 -35.49347
44.623 44.606 24.551392 -27.038574 -35.739136
44.649 44.626 23.321533 -26.377869 -35.09369
44.663 44.646 23.957825 -26.695251 -35.247803
44.687 44.667 24.034119 -27.508545 -34.8114
44.703 44.687 23.321533 -28.041077 -34.1156
44.731 44.707 23.815918 -28.205872 -34.599304
44.743 44.727 24.32251 -28.373718 -35.258484
44.764 44.747 24.32251 -28.373718 -35.4187
44.781 44.767 24.671936 -28.201294 -34.736633
44.804 44.787 24.639893 -27.519226 -33.60443
44.830 44.808 24.32251 -27.043152 -33.139038
44.842 44.828 25.369263 -27.70691 -33.23059
44.862 44.848 25.024414 -28.585815 -33.668518
44.882 44.868 24.156189 -28.874207 -33.95233
44.901 44.888 24.641418 -29.359436 -34.61609
44.922 44.908 24.601746 -30.093384 -35.09369
44.945 44.928 24.32251 -30.371094 -35.09369
44.963 44.949 24.84436 -30.059814 -33.973694
44.985 44.969 25.158691 -29.66919 -32.499695
45.000 44.989 25.158691 -29.53949 -31.99768
45.028 45.009 25.590515 -29.756165 -32.418823
45.040 45.029 24.92981 -30.76477 -32.43103
45.067 45.049 24.490356 -31.202698 -32.32422
45.080 45.069 25.390625 -30.97992 -32.102966
45.104 45.090 25.488281 -31.20575 -31.230164
45.120 45.110 25.325012 -31.369019 -30.85785
45.149 45.130 25.209045 -31.486511 -32.33185
45.159 45.150 25.042725 -31.422424 -31.970215
45.178 45.170 24.990845 -31.369019 -31.5094
45.199 45.190 24.24469 -31.866455 -30.53894
45.219 45.210 25.595093 -31.173706 -31.291199
45.240 45.231 26.159668 -30.870056 -31.672668
45.258 45.251 26.539612 -31.248474 -31.054688
45.278 45.271 26.274109 -31.498718 -30.480957
45.298 45.291 26.159668 -31.536865 -30.369568
45.318 45.311 24.816895 -33.410645 -29.582214
45.340 45.331 25.938416 -33.14514 -30.567932
45.359 45.351 26.493835 -32.86743 -31.021118
45.381 45.372 25.384521 -32.040405 -29.937744
45.404 45.392 25.984192 -33.242798 -28.372192
45.419 45.412 26.159668 -33.532715 -28.088379
45.443 45.432 25.727844 -33.963013 -28.790283
45.462 45.452 25.801086 -33.88977 -29.319763
45.483 45.472 25.8255 -33.865356 -29.39148
45.499 45.492 25.975037 -33.12378 -30.117798
45.525 45.513 26.585388 -33.329773 -31.072998
45.539 45.533 26.661682 -33.366394 -31.184387
45.560 45.553 25.58136 -33.828735 -30.430603
45.583 45.573 25.950623 -35.238647 -28.727722
45.607 45.593 25.993347 -35.36377 -28.578186
45.619 45.613 26.629639 -36.6333 -28.578186
45.640 45.633 25.236511 -36.53717 -29.656982
45.660 45.654 25.158691 -36.528015 -29.718018
45.680 45.674 26.473999 -34.88922 -26.824951
45.712 45.694 25.518799 -36.483765 -28.370667
45.740 45.714 25.492859 -36.520386 -28.411865
45.763 45.734 25.489807 -35.195923 -28.10669
45.778 45.754 25.325012 -35.031128 -29.229736
45.798 45.774 25.305176 -35.12726 -29.197693
45.818 45.795 24.803162 -37.54883 -28.379822
45.840 45.815 24.32251 -38.02643 -27.600098
45.858 45.835 24.275208 -38.049316 -27.644348
45.881 45.855 23.667908 -38.372803 -28.288269
45.906 45.875 23.822021 -38.52539 -28.73993
45.918 45.895 23.854065 -38.52539 -28.51715
45.939 45.915 24.224854 -38.560486 -26.493835
45.956 45.935 24.824524 -38.858032 -26.785278
45.976 45.956 24.824524 -38.815308 -26.69983
45.997 45.976 24.871826 -38.716125 -26.086426
46.015 45.996 25.158691 -39.855957 -25.808716
46.036 46.016 25.3479 -39.830017 -25.570679
46.058 46.036 26.045227 -39.746094 -24.450684
46.076 46.056 24.656677 -40.022278 -24.993896
46.096 46.076 24.461365 -40.08789 -24.92981
46.116 46.097 23.82965 -40.252686 -24.565125
46.135 46.117 24.490356 -39.855957 -24.179077
46.157 46.137 24.415588 -40.51819 -24.250793
46.176 46.157 24.043274 -42.21649 -24.249268
46.197 46.177 23.6557 -40.022278 -23.365784
46.217 46.197 24.194336 -40.29236 -23.802185
46.237 46.217 25.318909 -41.107178 -24.909973
46.256 46.238 24.32251 -41.35437 -24.668884
46.279 46.258 23.899841 -41.49475 -24.53003
46.300 46.278 22.775269 -41.72516 -24.305725
46.315 46.298 22.653198 -41.35437 -24.668884
46.335 46.318 22.496033 -41.19873 -24.719238
46.356 46.338 22.576904 -41.4917 -24.519348
46.375 46.358 23.487854 -42.851257 -23.854065
46.394 46.379 23.776245 -42.448425 -23.796082
46.415 46.399 24.32251 -41.337585 -23.805237
46.434 46.419 24.32251 -40.689087 -24.017334
46.457 46.439 24.32251 -41.059875 -23.41156
46.478 46.459 23.638916 -41.87317 -21.720886
46.494 46.479 22.486877 -42.185974 -20.596313
46.515 46.499 22.554016 -42.65747 -21.450806
46.536 46.520 22.787476 -43.351746 -22.976685
46.556 46.540 22.987366 -43.351746 -23.365784
46.582 46.560 23.28949 -42.749023 -23.069763
46.596 46.580 23.435974 -42.817688 -22.358704
46.618 46.600 23.153687 -43.850708 -21.899414
46.636 46.620 23.38562 -43.46466 -21.974182
46.660 46.640 23.57483 -43.414307 -21.984863
46.689 46.661 23.487854 -43.850708 -21.899414
46.700 46.681 22.660828 -43.52112 -21.73767
46.722 46.701 22.810364 -43.67981 -20.925903
46.736 46.721 23.822021 -44.18335 -20.269775
46.755 46.741 23.280334 -44.72351 -20.973206
46.777 46.761 22.640991 -44.111633 -21.3974
46.800 46.781 22.486877 -43.1839 -21.247864
46.815 46.802 23.503113 -43.46161 -20.976257
46.839 46.822 23.396301 -43.86902 -20.93811
46.857 46.842 22.653198 -44.01703 -21.084595
46.878 46.862 22.950745 -44.117737 -21.374512
46.904 46.882 21.783447 -43.989563 -20.617676
46.914 46.902 20.81604 -43.850708 -19.944763
46.939 46.922 21.7453 -44.16046 -20.446777
46.956 46.943 22.106934 -44.34967 -20.758057
46.975 46.963 21.984863 -44.34967 -20.758057
47.003 46.983 21.443176 -44.88983 -20.863342
47.015 47.003 21.258545 -45.074463 -19.972229
47.038 47.023 21.318054 -45.014954 -19.454956
47.054 47.043 21.549988 -44.78302 -20.367432
47.089 47.063 21.307373 -44.114685 -20.869446
47.099 47.084 21.150208 -43.850708 -20.921326
47.114 47.104 20.317078 -45.391846 -21.269226
47.139 47.124 20.5719 -46.36841 -20.602417
47.156 47.144 20.81604 -46.513367 -20.269775
47.176 47.164 21.302795 -46.02661 -20.507813
47.203 47.184 20.742798 -45.355225 -19.873047
47.215 47.204 20.481873 -45.181274 -19.618225
47.234 47.225 20.869446 -45.56732 -20.246887
47.258 47.245 20.863342 -44.615173 -20.315552
47.280 47.265 20.81604 -44.18335 -20.269775
47.295 47.285 21.621704 -45.254517 -20.007324
47.314 47.305 21.551514 -45.248413 -20.465088
47.334 47.325 21.484375 -45.181274 -20.596313
47.354 47.345 21.063232 -45.321655 -19.636536
47.380 47.366 20.843506 -45.210266 -19.320679
47.394 47.386 20.81604 -45.181274 -19.293213
47.414 47.406 21.104431 -44.606018 -18.44635
47.435 47.426 21.57898 -44.944763 -18.733215
47.455 47.446 21.650696 -45.014954 -18.803406
47.476 47.466 20.152283 -46.50879 -19.387817
47.493 47.486 21.162415 -46.38672 -19.743347
47.515 47.507 21.318054 -46.347046 -19.781494
47.536 47.527 22.090149 -44.03534 -19.932556
47.556 47.547 20.770264 -44.309998 -19.494629
47.584 47.567 20.64972 -44.34967 -19.454956
47.594 47.587 21.125793 -46.09375 -19.60907
47.611 47.607 20.35675 -44.441223 -21.011353
47.632 47.627 20.315552 -44.34967 -21.084595
47.650 47.648 20.80841 -44.84253 -18.992615
47.671 47.668 20.324707 -45.663452 -20.71991
47.711 47.688 20.321655 -45.681763 -20.741272
47.732 47.708 21.150208 -45.854187 -18.655396
47.753 47.728 21.150208 -46.84601 -20.596313
47.771 47.748 21.194458 -46.76361 -20.56427
47.791 47.768 22.189331 -44.667053 -19.796753
47.810 47.789 19.647217 -44.34967 -20.106506
47.832 47.809 19.737244 -44.400024 -20.056152
47.857 47.829 21.162415 -45.220947 -19.180298
47.872 47.849 21.318054 -45.680237 -17.826843
47.893 47.869 21.107483 -45.664978 -17.904663
47.912 47.889 19.374084 -45.42694 -18.829346
47.935 47.909 21.318054 -44.682312 -20.433044
47.952 47.930 21.151733 -44.93103 -20.472717
47.974 47.950 20.13855 -46.47827 -20.646667
47.993 47.970 21.150208 -45.181274 -19.944763
48.011 47.990 20.928955 -45.402527 -19.944763
48.032 48.010 20.040894 -46.351624 -20.039368
48.052 48.030 20.983887 -45.680237 -20.433044
48.085 48.050 21.046448 -45.555115 -20.555115
48.092 48.071 21.124268 -44.82422 -20.895386
48.115 48.091 20.315552 -44.01703 -20.106506
48.129 48.111 20.11261 -44.218445 -20.040894
48.150 48.131 19.772339 -45.321655 -19.929504
48.169 48.151 21.318054 -46.347046 -20.433044
48.189 48.171 21.063232 -46.1792 -20.101929
48.212 48.191 20.437622 -45.477295 -19.407654
48.229 48.211 20.81604 -44.848633 -20.269775
48.250 48.232 20.437622 -45.603943 -20.45288
48.269 48.252 19.624329 -46.984863 -20.874023
48.289 48.272 19.981384 -45.680237 -20.758057
48.314 48.292 20.259094 -45.495605 -20.758057
48.330 48.312 20.729065 -45.124817 -20.935059
48.353 48.332 19.815063 -45.513916 -21.572876
48.378 48.352 19.815063 -45.62683 -21.461487
48.392 48.373 19.75708 -45.111084 -20.858765
48.414 48.393 19.647217 -43.684387 -20.106506
48.428 48.413 20.143127 -44.055176 -20.106506
48.449 48.433 20.732117 -45.1828 -20.594788
48.469 48.453 20.315552 -46.01288 -21.409607
48.488 48.473 20.59784 -45.872498 -21.546936
48.508 48.493 21.386719 -46.084595 -21.603394
48.532 48.514 21.984863 -46.679688 -21.409607
48.548 48.534 21.62323 -46.032715 -21.057129
48.569 48.554 20.62378 -44.80896 -20.814514
48.588 48.574 19.981384 -44.34967 -21.084595
48.609 48.594 20.362854 -45.036316 -20.561218
48.629 48.614 21.504211 -45.6192 -19.718933
48.648 48.634 22.31903 -45.347595 -19.454956
48.677 48.655 22.065735 -46.105957 -19.372559
48.692 48.675 21.310425 -45.835876 -19.622803
48.714 48.695 20.81604 -44.848633 -19.944763
48.730 48.715 20.379639 -44.763184 -21.560669
48.748 48.735 20.855713 -45.37964 -22.184753
48.767 48.755 21.650696 -46.01288 -21.409607
48.788 48.775 22.40448 -45.44983 -20.857239
48.807 48.796 22.245789 -45.014954 -20.433044
48.830 48.816 21.650696 -45.014954 -20.433044
48.847 48.836 22.04132 -45.40558 -20.812988
48.866 48.856 21.818542 -45.97931 -20.596313
48.888 48.876 21.484375 -46.1792 -20.269775
48.907 48.896 21.89331 -45.976257 -20.66803
48.932 48.916 22.15271 -44.82727 -20.121765
48.948 48.937 22.15271 -44.18335 -19.618225
48.967 48.957 22.935486 -44.296265 -21.255493
48.996 48.977 22.885132 -44.34967 -21.212769
49.014 48.997 22.653198 -44.34967 -20.758057
49.029 49.017 22.653198 -44.799805 -20.758057
49.053 49.037 22.427368 -44.56787 -21.195984
49.068 49.057 22.31903 -44.34967 -21.409607
49.095 49.078 23.031616 -45.06073 -20.481873
49.109 49.098 21.556091 -44.5282 -21.138
49.129 49.118 20.81604 -44.18335 -21.572876
49.153 49.138 22.416687 -43.815613 -20.491028
49.170 49.158 22.39685 -43.803406 -21.833801
49.193 49.178 22.15271 -43.850708 -22.550964
49.209 49.198 22.409058 -43.08319 -21.296692
49.241 49.219 21.71936 -43.3609 -20.672607
49.252 49.239 21.484375 -43.518066 -20.596313
49.276 49.259 21.842957 -43.63861 -20.47882
49.288 49.279 23.52295 -43.684387 -20.433044
49.306 49.299 23.989868 -43.684387 -20.433044
49.326 49.319 22.322083 -43.130493 -21.788025
49.346 49.339 21.846008 -42.88025 -21.92688
49.365 49.360 21.818542 -42.851257 -21.899414
49.387 49.380 22.538757 -43.571472 -21.47522
49.405 49.400 22.938538 -42.260742 -19.735718
49.425 49.420 22.987366 -42.019653 -19.454956
49.445 49.440 23.284912 -42.614746 -20.327759
49.465 49.460 23.171997 -42.538452 -20.288086
49.486 49.480 23.153687 -42.518616 -20.269775
49.505 49.501 23.617554 -40.519714 -20.419312
49.530 49.521 23.501587 -39.59503 -20.283508
49.546 49.541 23.487854 -39.523315 -20.269775
49.566 49.561 23.487854 -38.890076 -21.202087
49.588 49.581 20.959473 -36.340332 -21.247864
49.614 49.601 20.81604 -36.195374 -21.247864
49.626 49.621 23.446655 -33.901978 -20.925903
49.650 49.642 22.839355 -32.57599 -21.55304
49.692 49.662 22.825623 -32.533264 -21.56372
49.710 49.682 24.005127 -32.00226 -20.143127
49.728 49.702 25.158691 -29.53949 -22.875977
49.745 49.722 25.213623 -29.528809 -22.875977
49.765 49.742 26.881409 -29.107666 -22.88208
49.785 49.762 27.996826 -27.043152 -23.039246
49.804 49.783 28.051758 -26.942444 -23.027039
49.824 49.803 28.715515 -25.610352 -22.888184
49.844 49.823 27.328491 -26.377869 -23.039246
49.864 49.843 27.410889 -26.36261 -23.15216
49.885 49.863 28.288269 -26.301575 -24.125671
49.907 49.883 29.333496 -27.043152 -23.690796
49.923 49.903 29.266357 -27.287292 -23.582458
49.944 49.924 28.477478 -28.793335 -23.008728
49.963 49.944 26.661682 -28.373718 -23.690796
49.984 49.964 26.953125 -28.189087 -23.716736
50.011 49.984 28.829956 -27.154541 -24.07074
50.024 50.004 30.50232 -26.876831 -25.157166
50.044 50.024 30.258179 -27.120972 -24.919128
50.070 50.044 29.429626 -27.687073 -23.921204
50.088 50.065 29.833984 -26.211548 -23.527527
50.104 50.085 30.123901 -26.28479 -23.527527
50.124 50.105 31.09436 -26.54419 -23.310852
50.143 50.125 30.836487 -26.54419 -22.550964
50.163 50.145 30.622864 -26.672363 -22.924805
50.185 50.165 30.000305 -27.304077 -23.846436
50.203 50.185 30.000305 -28.041077 -23.365784
50.222 50.206 29.904175 -28.611755 -23.27118
50.243 50.226 29.618835 -30.08728 -22.615051
50.263 50.246 29.499817 -30.204773 -21.572876
50.283 50.266 29.76532 -30.89447 -21.832275
50.306 50.286 30.279541 -32.4234 -22.439575
50.323 50.306 30.168152 -32.53479 -22.550964
50.343 50.326 30.342102 -33.059692 -22.2641
50.366 50.347 30.551147 -33.685303 -21.736145
50.386 50.367 30.334473 -33.033752 -21.736145
50.404 50.387 30.586243 -33.535767 -21.858215
50.422 50.407 30.180359 -33.673096 -22.000122
50.442 50.427 28.831482 -32.53479 -21.899414
50.462 50.447 28.967285 -32.26471 -21.633911
50.487 50.467 29.377747 -32.64618 -22.14508
50.502 50.487 29.667664 -33.699036 -23.365784
50.522 50.508 28.938293 -33.554077 -22.511292
50.542 50.528 28.215027 -33.294678 -22.192383
50.563 50.548 28.497314 -33.200073 -23.202515
50.582 50.568 28.97644 -33.200073 -23.04535
50.602 50.588 28.535461 -32.720947 -23.345947
50.623 50.608 27.496338 -32.20215 -23.854065
50.643 50.628 28.32489 -32.533264 -23.36731
50.663 50.649 28.582764 -33.28247 -23.280334
50.684 50.669 27.996826 -33.699036 -23.690796
50.705 50.689 28.355408 -33.699036 -23.690796
50.733 50.709 28.04718 -33.436584 -24.119568
50.741 50.729 27.496338 -33.200073 -24.505615
50.763 50.749 27.401733 -33.10852 -24.049377
50.781 50.769 26.75476 -33.415222 -24.809265
50.802 50.790 26.327515 -33.699036 -25.645447
50.821 50.810 26.130676 -34.091187 -24.87793
50.841 50.830 26.385498 -32.99713 -24.342346
50.862 50.850 26.661682 -32.035828 -24.342346
50.880 50.870 26.765442 -33.40454 -24.650574
50.902 50.890 27.348328 -34.718323 -24.525452
50.920 50.910 27.662659 -35.031128 -24.342346
50.942 50.931 26.901245 -33.192444 -24.659729
50.963 50.951 27.575684 -32.633972 -24.830627
50.981 50.971 28.164673 -32.86743 -24.830627
51.013 50.991 27.128601 -32.9834 -25.167847
51.022 51.011 27.22168 -33.81653 -25.8667
51.046 51.031 27.496338 -34.197998 -26.133728
51.063 51.051 27.375793 -33.843994 -26.712036
51.082 51.072 26.731873 -33.343506 -26.133728
51.113 51.092 26.493835 -33.200073 -25.808716
51.122 51.112 27.113342 -34.313965 -25.92926
51.142 51.132 26.959229 -34.33075 -26.330566
51.165 51.152 26.828003 -34.197998 -26.460266
51.190 51.172 27.778625 -34.910583 -25.994873
51.204 51.192 29.03595 -35.073853 -23.74115
51.228 51.213 29.333496 -35.031128 -23.039246
51.243 51.233 27.600098 -36.22589 -24.467468
51.264 51.253 27.560425 -35.60028 -25.219727
51.283 51.273 27.662659 -35.36377 -25.320435
51.308 51.293 28.08075 -35.224915 -25.99945
51.322 51.313 27.192688 -35.612488 -25.997925
51.342 51.333 26.994324 -35.69641 -25.971985
51.363 51.354 28.007507 -35.84137 -23.571777
51.381 51.374 27.876282 -35.290527 -25.44403
51.407 51.394 27.830505 -35.19745 -25.808716
51.421 51.414 27.079773 -36.541748 -24.784851
51.444 51.434 28.630066 -34.770203 -24.5224
51.459 51.454 28.831482 -34.532166 -24.505615
51.479 51.474 28.520203 -33.60443 -24.201965
51.501 51.495 27.882385 -35.3714 -24.47815
51.519 51.515 27.830505 -35.53009 -24.505615
51.538 51.535 27.989197 -34.413147 -24.972534
51.559 51.555 28.314209 -34.048462 -24.684143
51.579 51.575 28.330994 -34.031677 -24.668884
51.599 51.595 28.660583 -34.361267 -26.278687
51.619 51.615 27.192688 -33.876038 -26.455688
51.667 51.636 27.16217 -33.865356 -26.441956
51.679 51.656 27.160645 -33.851624 -24.516296
51.699 51.676 26.994324 -32.035828 -25.971985
51.727 51.696 26.948547 -32.081604 -25.964355
51.742 51.716 25.888062 -33.184814 -25.72937
51.775 51.736 27.16217 -32.86743 -24.179077
51.785 51.756 27.2995 -32.844543 -24.223328
51.800 51.777 29.02069 -32.626343 -24.816895
51.825 51.797 27.328491 -33.699036 -24.668884
51.839 51.817 27.175903 -33.447266 -24.91455
51.860 51.837 25.897217 -31.27594 -26.934814
51.879 51.857 26.493835 -31.869507 -25.482178
51.904 51.877 26.226807 -32.13501 -25.698853
51.925 51.897 24.794006 -33.84247 -27.178955
51.940 51.918 26.661682 -33.699036 -27.600098
51.975 51.938 26.434326 -33.47473 -27.630615
51.980 51.958 25.83313 -32.64923 -27.763367
52.001 51.978 27.496338 -33.200073 -27.763367
52.017 51.998 27.07367 -33.16803 -27.604675
52.037 52.018 25.66681 -32.89795 -27.01416
52.060 52.038 26.994324 -32.36847 -27.275085
52.077 52.059 27.107239 -32.556152 -27.384949
52.098 52.079 27.610779 -33.085632 -27.650452
52.117 52.099 27.996826 -32.70111 -27.275085
52.139 52.119 28.115845 -32.58362 -27.001953
52.158 52.139 28.359985 -32.33795 -26.332092
52.176 52.159 27.830505 -32.86743 -27.111816
52.197 52.179 27.877808 -32.725525 -27.34375
52.217 52.200 27.947998 -33.000183 -28.163147
52.240 52.220 27.830505 -34.532166 -28.73993
52.264 52.240 27.53601 -34.38568 -28.381348
52.280 52.260 27.23999 -33.865356 -27.215576
52.297 52.280 28.831482 -33.865356 -27.436829
52.320 52.300 28.709412 -33.865356 -27.436829
52.337 52.320 28.437805 -33.68988 -27.262878
52.365 52.341 28.330994 -33.366394 -26.948547
52.379 52.361 28.14331 -34.303284 -26.641846
52.400 52.381 28.529358 -35.420227 -26.6922
52.418 52.401 29.667664 -34.698486 -27.600098
52.439 52.421 29.93927 -34.970093 -27.600098
52.465 52.441 30.403137 -35.1593 -27.131653
52.479 52.461 30.50232 -34.864807 -26.460266
52.498 52.482 30.19867 -35.77118 -26.60675
52.518 52.502 30.523682 -36.17401 -27.009583
52.538 52.522 31.336975 -35.36377 -27.275085
52.559 52.542 31.80542 -35.20813 -26.205444
52.578 52.562 32.02362 -34.091187 -25.453186
52.600 52.582 31.671143 -33.033752 -25.971985
52.620 52.602 30.899048 -33.2901 -25.888062
52.637 52.623 31.004333 -32.865906 -26.461792
52.664 52.643 31.837463 -32.20215 -27.111816
52.677 52.663 32.102966 -33.351135 -26.506042
52.702 52.683 31.245422 -34.36432 -26.681519
52.718 52.703 30.334473 -34.36432 -27.275085
52.739 52.723 30.613708 -34.64508 -27.728271
52.768 52.743 30.741882 -34.77173 -28.361511
52.778 52.763 30.66864 -34.698486 -28.578186
52.799 52.784 30.566406 -34.191895 -29.07257
52.819 52.804 29.49524 -34.26819 -29.194641
52.837 52.824 28.831482 -34.532166 -29.066467
52.862 52.844 29.248047 -34.532166 -29.676819
52.877 52.864 29.707336 -35.36377 -29.229736
52.895 52.884 29.833984 -35.862732 -28.73993
52.921 52.904 30.610657 -34.42383 -28.198242
52.940 52.925 31.547546 -33.15735 -27.180481
52.955 52.945 31.837463 -32.86743 -26.785278
52.974 52.965 31.147766 -32.640076 -27.456665
52.994 52.985 32.125854 -32.418823 -28.105164
53.017 53.005 32.67212 -32.36847 -28.251648
53.034 53.025 31.234741 -32.36847 -27.783203
53.054 53.045 30.070496 -32.72705 -28.414917
53.074 53.066 29.833984 -32.86743 -28.73993
53.095 53.086 29.949951 -32.751465 -28.625488
53.114 53.106 29.756165 -32.458496 -28.578186
53.133 53.126 29.667664 -32.36847 -28.578186
53.155 53.146 30.714417 -32.89032 -28.578186
53.175 53.166 31.391907 -32.90558 -28.956604
53.196 53.186 31.503296 -32.86743 -29.066467
53.214 53.207 30.84259 -31.158447 -29.966736
53.244 53.227 29.592896 -30.168152 -28.631592
53.256 53.247 29.333496 -30.038452 -28.251648
53.278 53.267 29.333496 -30.599976 -29.626465
53.299 53.287 30.926514 -31.071472 -29.52118
53.315 53.307 31.503296 -31.202698 -29.39148
53.335 53.327 31.793213 -31.49414 -28.823853
53.358 53.348 29.66919 -31.105042 -30.007935
53.374 53.368 29.333496 -31.036377 -30.206299
53.397 53.388 29.785156 -29.985046 -30.058289
53.417 53.408 30.133057 -30.470276 -28.581238
53.434 53.428 30.168152 -30.537415 -28.414917
53.458 53.448 29.386902 -32.873535 -28.871155
53.474 53.468 29.64325 -30.563354 -30.415344
53.498 53.489 29.667664 -30.371094 -30.532837
53.516 53.509 28.375244 -30.05066 -30.532837
53.535 53.529 26.887512 -29.241943 -30.375671
53.558 53.549 26.828003 -29.206848 -30.369568
53.574 53.569 28.155518 -30.529785 -30.691528
53.596 53.589 29.147339 -29.884338 -31.333923
53.646 53.609 29.13971 -29.885864 -31.350708
53.655 53.630 27.809143 -30.537415 -31.70166
53.675 53.650 27.16217 -30.537415 -32.64923
53.694 53.670 27.056885 -30.607605 -32.6828
53.716 53.690 25.238037 -31.790161 -33.26111
53.737 53.710 26.493835 -30.537415 -32.64923
53.756 53.730 26.560974 -30.60608 -32.50122
53.779 53.750 27.342224 -31.44226 -30.815125
53.794 53.771 27.496338 -32.20215 -30.369568
53.813 53.791 27.420044 -31.976318 -30.2948
53.840 53.811 27.070618 -30.1651 -29.797363
53.854 53.831 28.831482 -29.872131 -30.369568
53.873 53.851 29.063416 -29.93164 -30.426025
53.893 53.871 30.014038 -30.001831 -30.593872
53.914 53.891 29.16565 -28.874207 -30.04303
53.939 53.912 29.194641 -29.02069 -30.128479
53.954 53.932 29.04663 -29.35791 -30.500793
53.973 53.952 27.830505 -27.874756 -30.369568
53.993 53.972 27.830505 -28.29132 -30.1651
54.029 53.992 27.75879 -29.943848 -29.530334
54.034 54.012 27.496338 -30.204773 -30.04303
54.059 54.032 27.383423 -30.392456 -30.444336
54.070 54.053 27.226257 -30.937195 -31.672668
54.091 54.073 28.164673 -30.537415 -31.021118
54.111 54.093 28.300476 -30.58319 -31.065369
54.131 54.113 28.572083 -30.796814 -30.6427
54.153 54.133 28.330994 -31.036377 -29.229736
54.170 54.153 28.076172 -31.507874 -29.476929
54.191 54.173 26.905823 -32.94525 -30.718994
54.210 54.194 26.327515 -32.36847 -31.5094
54.230 54.214 26.271057 -31.323242 -31.347656
54.250 54.234 26.383972 -29.319763 -30.030823
54.270 54.254 26.828003 -29.53949 -28.088379
54.294 54.274 27.801514 -29.418945 -27.850342
54.317 54.294 29.125977 -29.579163 -27.920532
54.334 54.314 28.497314 -30.204773 -28.73993
54.352 54.335 28.430176 -29.743958 -28.15857
54.371 54.355 28.06549 -29.304504 -27.015686
54.391 54.375 27.662659 -29.70581 -26.623535
54.412 54.395 27.95868 -28.967285 -27.056885
54.444 54.415 28.85437 -28.712463 -27.088928
54.449 54.435 29.499817 -29.53949 -26.460266
54.469 54.455 28.433228 -29.237366 -27.053833
54.489 54.476 27.696228 -28.9505 -27.836609
54.512 54.496 28.330994 -29.040527 -27.926636
54.529 54.516 28.161621 -30.882263 -27.598572
54.549 54.536 28.652954 -32.211304 -28.555298
54.568 54.556 29.333496 -31.703186 -29.881287
54.589 54.576 28.024292 -31.964111 -29.96521
54.610 54.596 26.290894 -32.559204 -29.519653
54.628 54.617 25.8255 -32.86743 -29.066467
54.650 54.637 26.008606 -31.951904 -28.707886
54.670 54.657 25.700378 -31.843567 -29.399109
54.690 54.677 25.325012 -32.36847 -30.206299
54.710 54.697 24.822998 -32.269287 -29.91333
54.739 54.717 25.280762 -32.79419 -30.488586
54.751 54.737 25.8255 -33.200073 -31.021118
54.771 54.758 25.315857 -33.50525 -30.523682
54.793 54.778 25.602722 -35.325623 -29.60968
54.812 54.798 25.993347 -36.361694 -29.229736
54.833 54.818 25.993347 -34.605408 -29.013062
54.848 54.838 24.827576 -33.805847 -28.799438
54.868 54.858 24.156189 -33.865356 -28.73993
54.888 54.878 23.361206 -33.75244 -28.849792
54.908 54.899 23.797607 -33.815002 -29.016113
54.929 54.919 24.156189 -33.865356 -29.066467
54.947 54.939 23.80066 -33.747864 -29.180908
54.968 54.959 24.127197 -33.935547 -29.458618
54.987 54.979 24.32251 -34.031677 -29.554749
55.008 54.999 24.087524 -34.501648 -30.012512
55.029 55.019 23.626709 -34.09729 -29.852295
55.047 55.039 23.487854 -33.865356 -29.718018
55.068 55.060 24.261475 -34.63745 -27.452087
55.088 55.080 24.360657 -34.99298 -28.663635
55.113 55.100 24.32251 -35.031128 -29.229736
55.131 55.120 23.54126 -35.551453 -28.720093
55.155 55.140 22.918701 -35.031128 -28.18451
55.168 55.160 22.819519 -34.864807 -28.088379
55.188 55.180 23.80066 -35.284424 -28.49884
55.212 55.201 24.842834 -35.728455 -28.457642
55.237 55.221 25.158691 -35.862732 -28.414917
55.253 55.241 25.737 -36.15265 -27.84729
55.272 55.261 24.240112 -35.765076 -27.903748
55.286 55.281 23.989868 -35.69641 -27.926636
55.308 55.301 24.905396 -35.39276 -28.224182
55.327 55.321 25.14038 -36.109924 -26.351929
55.346 55.342 25.158691 -36.195374 -26.133728
55.367 55.362 26.087952 -36.505127 -26.737976
55.386 55.382 24.16687 -36.07025 -27.233887
55.406 55.402 23.989868 -36.029053 -27.275085
55.427 55.422 24.629211 -36.029053 -26.64795
55.446 55.442 25.45166 -36.505127 -27.397156
55.466 55.462 25.492859 -36.528015 -27.436829
55.485 55.483 26.152039 -36.528015 -25.498962
55.509 55.503 25.675964 -35.083008 -26.583862
55.549 55.523 25.650024 -35.040283 -26.620483
55.568 55.543 24.841309 -35.853577 -26.463318
55.586 55.563 25.65918 -35.36377 -26.623535
55.617 55.583 25.598145 -35.424805 -26.564026
55.630 55.603 24.221802 -36.77826 -25.221252
55.653 55.624 25.492859 -35.19745 -26.460266
55.665 55.644 25.468445 -35.29358 -26.435852
55.687 55.664 25.196838 -36.619568 -26.094055
55.705 55.684 25.65918 -37.693787 -25.645447
55.725 55.704 25.58899 -37.556458 -25.779724
55.746 55.724 25.196838 -36.531067 -26.599121
55.765 55.744 26.828003 -37.860107 -23.854065
55.786 55.765 26.908875 -38.05237 -24.147034
55.805 55.785 27.185059 -38.97705 -25.645447
55.826 55.805 26.327515 -38.69171 -25.645447
55.844 55.825 25.965881 -38.554382 -25.454712
55.864 55.845 24.214172 -37.979126 -24.446106
55.886 55.865 24.490356 -38.52539 -24.179077
55.905 55.885 24.72229 -38.493347 -24.21112
55.927 55.906 26.135254 -38.223267 -24.075317
55.947 55.926 27.996826 -37.693787 -23.039246
55.977 55.946 27.45514 -37.87384 -23.355103
55.992 55.966 25.62561 -38.327026 -24.37439
56.009 55.986 26.159668 -37.527466 -23.854065
56.024 56.006 25.900269 -38.043213 -23.854065
56.045 56.026 24.613953 -39.06555 -23.812866
56.068 56.047 22.987366 -37.693787 -23.690796
56.083 56.067 23.454285 -38.08899 -24.005127
56.104 56.087 25.35553 -39.326477 -24.287415
56.124 56.107 25.8255 -38.858032 -22.224426
56.154 56.127 26.095581 -39.4516 -22.276306
56.167 56.147 26.757813 -40.4953 -22.671509
56.183 56.167 26.994324 -40.022278 -23.365784
56.203 56.188 27.227783 -40.022278 -23.02246
56.225 56.208 27.005005 -40.081787 -21.980286
56.244 56.228 25.8255 -40.1886 -21.247864
56.264 56.248 26.275635 -39.996338 -21.939087
56.297 56.268 27.124023 -39.689636 -22.151184
56.306 56.288 27.328491 -39.689636 -20.758057
56.325 56.308 27.470398 -40.25879 -21.174622
56.343 56.329 26.794434 -41.31012 -21.736145
56.367 56.349 25.65918 -41.68701 -21.736145
56.383 56.369 25.808716 -40.78827 -21.736145
56.403 56.389 26.295471 -40.293884 -21.736145
56.423 56.409 26.661682 -41.02173 -21.736145
56.444 56.429 26.577759 -41.26892 -21.011353
56.463 56.449 26.493835 -41.041565 -19.955444
56.482 56.470 26.493835 -40.522766 -19.618225
56.502 56.490 26.835632 -40.522766 -19.950867
56.522 56.510 26.202393 -40.437317 -20.864868
56.543 56.530 25.325012 -40.356445 -21.409607
56.562 56.550 25.053406 -41.166687 -20.793152
56.584 56.570 25.186157 -41.13159 -19.915771
56.603 56.590 25.492859 -40.522766 -19.618225
56.623 56.611 25.590515 -41.012573 -19.71283
56.646 56.631 24.880981 -42.70935 -19.59076
56.669 56.651 24.32251 -43.684387 -19.454956
56.687 56.671 24.221802 -43.1839 -19.74945
56.704 56.691 24.659729 -42.55066 -19.451904
56.723 56.711 24.990845 -42.352295 -19.129944
56.745 56.731 25.204468 -42.352295 -18.710327
56.766 56.752 25.64087 -42.036438 -19.200134
56.795 56.772 25.8255 -41.853333 -19.618225
56.802 56.792 25.604248 -41.853333 -18.537903
56.821 56.812 25.605774 -42.196655 -18.099976
56.842 56.832 25.65918 -42.352295 -18.151855
56.863 56.852 24.606323 -43.16864 -17.581177
56.881 56.872 23.573303 -42.938232 -17.449951
56.901 56.893 23.321533 -42.684937 -17.500305
56.923 56.913 23.789978 -43.85376 -17.956543
56.942 56.933 24.10736 -43.756104 -18.035889
56.962 56.953 24.156189 -43.518066 -17.990112
56.981 56.973 24.919128 -44.784546 -17.494202
57.002 56.993 23.262024 -44.552612 -18.44635
57.026 57.013 22.653198 -44.34967 -18.803406
57.045 57.034 22.395325 -44.34967 -17.55066
57.069 57.054 21.923828 -45.7901 -18.070984
57.082 57.074 21.818542 -46.1792 -18.315125
57.102 57.094 23.054504 -45.495605 -17.912292
57.122 57.114 23.321533 -45.6192 -17.294312
57.144 57.134 23.321533 -45.680237 -17.175293
57.169 57.154 22.891235 -45.254517 -17.871094
57.182 57.175 22.961426 -45.60547 -18.125916
57.202 57.195 22.987366 -45.680237 -18.151855
57.222 57.215 21.659851 -44.65332 -17.144775
57.244 57.235 23.097229 -45.246887 -17.726135
57.264 57.255 23.321533 -45.347595 -17.826843
57.282 57.275 22.250366 -46.41571 -17.079163
57.306 57.295 22.15271 -47.724915 -16.716003
57.328 57.315 22.15271 -47.843933 -16.687012
57.348 57.336 20.97931 -48.1369 -17.25769
57.362 57.356 21.910095 -46.463013 -16.879272
57.390 57.376 21.984863 -46.347046 -16.848755
57.401 57.396 21.821594 -46.836853 -17.967224
57.426 57.416 21.333313 -45.39795 -17.515564
57.460 57.436 21.318054 -45.350647 -17.497253
57.480 57.456 21.818542 -46.85974 -16.047668
57.499 57.477 21.818542 -47.843933 -17.012024
57.519 57.497 21.812439 -47.79358 -16.96167
57.540 57.517 21.591187 -46.376038 -15.57312
57.559 57.537 20.315552 -47.01233 -16.197205
57.579 57.557 20.39032 -47.001648 -16.20636
57.599 57.577 21.408081 -46.922302 -16.307068
57.618 57.597 20.315552 -48.010254 -15.545654
57.639 57.618 20.422363 -48.057556 -15.620422
57.663 57.638 21.237183 -48.509216 -16.325378
57.680 57.658 19.146729 -48.509216 -16.035461
57.704 57.678 19.20166 -48.30475 -16.125488
57.724 57.698 19.66858 -46.83838 -16.51764
57.748 57.718 19.815063 -47.843933 -14.405823
57.761 57.738 19.606018 -47.7417 -14.607239
57.781 57.759 18.592834 -47.236633 -15.763855
57.804 57.779 19.146729 -47.51129 -16.035461
57.823 57.799 19.114685 -47.669983 -15.942383
57.839 57.819 18.978882 -48.147583 -15.673828
57.864 57.839 18.978882 -47.34497 -16.197205
57.878 57.859 18.75 -47.49756 -16.345215
57.903 57.879 18.431091 -48.216248 -16.647339
57.919 57.900 19.815063 -48.841858 -16.035461
57.954 57.920 19.262695 -48.37799 -15.496826
57.961 57.940 17.944336 -46.884155 -14.126587
57.985 57.960 18.812561 -46.513367 -14.732361
58.004 57.980 18.670654 -46.795654 -14.318848
58.018 58.000 18.04657 -48.03772 -13.438416
58.038 58.020 17.810059 -48.509216 -15.057373
58.057 58.041 18.339539 -48.298645 -14.43634
58.080 58.061 19.192505 -47.843933 -13.755798
58.097 58.081 18.478394 -47.843933 -15.383911
58.116 58.101 18.127441 -48.077393 -15.155029
58.138 58.121 17.356873 -48.27423 -14.268494
58.157 58.141 17.14325 -47.843933 -13.42926
58.176 58.161 17.462158 -47.6532 -13.366699
58.197 58.182 17.396545 -47.66693 -13.328552
58.216 58.202 16.474915 -48.176575 -13.42926
58.242 58.222 16.545105 -48.390198 -13.35907
58.258 58.242 16.567993 -48.74878 -13.900757
58.279 58.262 16.474915 -48.841858 -14.732361
58.299 58.282 16.549683 -48.316956 -14.363098
58.319 58.302 16.119385 -47.90039 -14.134216
58.340 58.323 15.472412 -48.176575 -14.405823
58.362 58.343 15.634155 -48.176575 -14.405823
58.378 58.363 15.965271 -48.335266 -14.250183
58.397 58.383 16.140747 -48.509216 -14.080811
58.419 58.403 15.802002 -48.67859 -13.586426
58.439 58.423 14.866638 -48.928833 -13.691711
58.462 58.443 14.303589 -49.00818 -14.242554
58.477 58.464 15.110779 -49.27826 -14.155579
58.497 58.484 15.626526 -48.973083 -13.031006
58.515 58.504 15.472412 -48.509216 -12.12616
58.534 58.524 15.570068 -48.802185 -12.411499
58.557 58.544 15.252686 -48.431396 -12.614441
58.575 58.564 14.971924 -48.010254 -12.614441
58.595 58.584 15.875244 -48.71216 -11.927795
58.615 58.605 16.072083 -49.77722 -11.474609
58.636 58.625 15.80658 -50.17395 -11.474609
58.656 58.645 16.874695 -49.534607 -11.265564
58.675 58.665 15.475464 -49.909973 -11.660767
58.695 58.685 14.303589 -50.34027 -11.962891
58.716 58.705 15.406799 -49.68109 -11.314392
58.735 58.725 15.400696 -49.227905 -11.096191
58.759 58.746 15.138245 -49.1745 -11.148071
58.777 58.766 15.602112 -50.564575 -11.827087
58.798 58.786 15.112305 -50.712585 -11.6744995
58.830 58.806 14.804077 -50.50659 -11.474609
58.840 58.826 13.989258 -50.39215 -12.039185
58.856 58.846 13.871765 -50.81482 -11.129761
58.880 58.866 13.969421 -51.005554 -10.65979
58.896 58.887 14.855957 -50.627136 -11.524963
58.917 58.907 14.759827 -50.883484 -10.446167
58.938 58.927 14.637756 -51.005554 -10.00824
58.964 58.947 15.150452 -50.750732 -11.009216
58.977 58.967 14.517212 -49.627686 -9.516907
59.000 58.987 14.303589 -49.342346 -9.030151
59.027 59.007 13.342285 -50.57373 -9.700012
59.040 59.028 13.981628 -51.202393 -10.435486
59.067 59.048 14.303589 -51.338196 -10.65979
59.080 59.068 14.587402 -50.772095 -10.10437
59.094 59.088 14.920044 -50.956726 -9.176636
59.113 59.108 14.971924 -51.005554 -9.030151
59.133 59.128 14.971924 -51.301575 -9.320068
59.155 59.148 12.615967 -49.873352 -10.791016
59.173 59.169 12.30011 -49.674988 -10.984802
59.193 59.189 12.606812 -51.20392 -10.68573
59.214 59.209 12.028503 -50.737 -11.541748
59.233 59.229 11.965942 -50.672913 -11.636353
59.253 59.249 12.600708 -50.672913 -8.5372925
59.274 59.269 10.289001 -49.894714 -10.665894
59.293 59.289 10.128784 -49.84131 -10.823059
59.323 59.310 10.618591 -49.679565 -10.661316
59.336 59.330 10.302734 -50.971985 -10.340881
59.379 59.350 10.290527 -51.00708 -10.331726
59.394 59.370 9.141541 -51.16577 -10.159302
59.427 59.390 10.295105 -50.672913 -9.356689
59.437 59.410 10.317993 -50.650024 -9.390259
59.454 59.430 10.940552 -50.061035 -10.266113
59.478 59.451 10.462952 -51.171875 -8.868408
59.494 59.471 10.429382 -51.228333 -8.879089
59.522 59.491 9.918213 -51.898193 -8.924866
59.535 59.511 9.294128 -50.34027 -7.4020386
59.554 59.531 9.390259 -50.37384 -7.495117
59.578 59.551 10.095215 -50.656128 -8.430481
59.593 59.571 8.459473 -50.50659 -8.868408
59.617 59.591 8.566284 -50.453186 -8.972168
59.642 59.612 9.0789795 -50.26703 -9.5199585
59.654 59.632 8.79364 -50.839233 -9.5199585
59.679 59.652 8.496094 -50.759888 -9.545898
59.698 59.672 6.628418 -50.37079 -9.710693
59.715 59.692 5.1193237 -50.50659 -9.844971
59.731 59.712 5.415344 -50.605774 -9.811401
59.752 59.732 6.655884 -50.83618 -9.648132
59.772 59.753 6.7886353 -50.17395 -9.5199585
59.793 59.773 6.604004 -49.99237 -9.62677
59.812 59.793 6.1203003 -49.443054 -9.9105835
59.832 59.813 6.7886353 -49.84131 -9.5199585
59.851 59.833 6.3964844 -49.972534 -9.222412
59.871 59.853 5.8181763 -50.074768 -8.6380005
59.894 59.873 7.2906494 -49.342346 -9.356689
59.911 59.894 6.968689 -49.235535 -9.042358
59.932 59.914 5.445862 -48.890686 -7.937622
59.951 59.934 4.6188354 -49.00818 -8.053589
59.975 59.954 5.154419 -49.43695 -8.366394
60.000 59.974 5.949402 -50.004578 -9.075928
60.012 59.994 5.1193237 -49.1745 -9.19342
60.034 60.014 5.177307 -49.468994 -9.365845
60.055 60.035 4.2633057 -49.708557 -9.622192
60.075 60.055 2.4475098 -49.1745 -9.5199585
60.092 60.075 3.5369873 -49.240112 -9.455872
60.119 60.095 5.545044 -49.601746 -9.736633
60.132 60.115 5.9539795 -50.00763 -10.333252
60.152 60.135 5.2368164 -50.579834 -9.632874
60.178 60.155 4.284668 -50.906372 -9.692383
60.197 60.176 4.284668 -50.34027 -10.984802
60.210 60.196 3.9001465 -49.960327 -10.461426
60.229 60.216 3.829956 -49.28131 -9.472656
60.249 60.236 4.284668 -49.00818 -9.030151
60.271 60.256 3.9505005 -49.342346 -9.355164
60.289 60.276 3.616333 -49.188232 -9.681702
60.309 60.296 3.616333 -48.675537 -9.681702
60.330 60.317 2.8381348 -49.794006 -10.101318
60.349 60.337 2.1133423 -50.309753 -10.668945
60.369 60.357 2.1133423 -49.84131 -10.823059
60.388 60.377 2.1133423 -48.716736 -10.638428
60.410 60.397 2.671814 -48.03009 -10.131836
60.430 60.417 3.1158447 -48.176575 -9.844971
60.448 60.437 2.3254395 -47.784424 -9.844971
60.470 60.458 2.1697998 -48.487854 -9.844971
60.489 60.478 2.4475098 -49.1745 -9.844971
60.509 60.498 2.243042 -48.971558 -10.241699
60.528 60.518 2.4169922 -49.9588 -11.38916
60.547 60.538 2.6138306 -50.672913 -11.962891
60.568 60.558 3.0456543 -48.516846 -11.117554
